Electricity:Facility [kW](Hourly)
778.0079691
776.2417501
779.3573377
778.7371961
787.835835
786.1813539
853.5088811
859.1351385
928.7459153
918.674958
933.6863985
939.7496526
942.3993169
939.0273826
944.3362001
956.8007646
920.947656
880.4900035
865.2484589
859.6448838
824.9100224
826.6410027
808.700256
801.4081714
789.0006741
802.3976527
803.6917375
804.3349092
884.6315368
880.8147014
1117.444028
1227.432053
1271.237363
1314.401195
1333.06337
1334.068821
1284.421526
1313.550931
1310.689264
1311.521763
1319.707497
1329.130873
1065.303118
1073.79061
923.863202
872.9060841
805.6027106
814.4186568
796.4557717
801.2412201
817.274789
835.6164297
924.5554603
919.0004369
1139.190858
1253.684909
1297.395817
1337.990155
1331.617106
1333.490652
1289.229174
1326.016604
1328.473203
1326.545447
1350.650254
1371.851479
1101.319154
1071.97701
938.4177261
874.8785992
803.950683
806.3745778
793.2196687
792.0848226
789.5617739
792.3282725
885.4484497
876.6354365
1103.625422
1222.251313
1256.63806
1295.670031
1307.70588
1312.044676
1272.029279
1307.366175
1306.272234
1309.427797
1322.673202
1333.640008
1056.903742
1047.882589
912.5736848
872.6849786
807.7064913
802.5732598
789.5389177
790.1920982
795.7037198
794.6316543
875.5770692
876.9499487
1099.790545
1217.504001
1254.785073
1292.183866
1303.213776
1310.184174
1272.226891
1305.495014
1311.086854
1313.940405
1323.285281
1333.364355
1054.588461
1048.89899
916.7443926
869.918696
803.3485684
803.9361974
792.2492551
792.0030422
790.4929056
790.0078913
879.9105511
884.493141
1112.459072
1226.653061
1260.058319
1295.066074
1308.373768
1313.270676
1272.48234
1309.166465
1305.612141
1306.769427
1313.180317
1326.541864
1051.94669
1047.116161
912.1543003
870.4109671
798.262162
806.9879829
796.1007382
797.4453195
793.7773245
789.7573338
795.227457
796.51889
872.8420352
988.7171463
992.6751319
1102.43134
1109.389585
1107.38007
1075.127544
1069.183883
1071.704725
996.3685694
1002.202259
972.8475107
931.4151355
921.4875201
807.5414407
805.7530869
796.8282286
797.9289118
773.1777658
774.0821616
773.2096159
772.198682
781.3999958
780.9822479
849.6803565
846.2162948
918.1183645
923.9478714
949.9851787
941.5311781
960.3509284
954.8999817
968.7856604
976.4237994
921.2748835
896.9217738
865.8075413
841.4447263
809.3307314
807.6687615
811.0441722
814.5203937
814.5233733
807.1603372
814.5468363
815.0228312
885.7687649
884.0976832
1111.50787
1225.814478
1260.748019
1299.934282
1311.210785
1303.328853
1264.393529
1302.38183
1305.856602
1306.445568
1308.345166
1324.55209
1055.581168
1058.594687
922.549449
883.1369246
810.2436704
808.5805492
793.6149826
795.0435406
795.3174916
793.7276111
887.9124583
890.4191347
1117.346868
1224.38591
1262.151809
1299.915922
1309.619874
1307.163279
1269.308002
1308.286333
1310.388304
1305.119755
1309.016683
1331.242769
1060.007869
1054.02429
915.2985502
869.8336594
806.8356073
805.9793451
797.3007963
794.7815564
796.1601394
796.6706079
883.6213843
884.0186077
1104.740567
1219.86677
1263.339839
1295.634232
1301.826436
1305.99049
1267.425588
1304.04822
1307.314492
1302.412635
1313.084844
1329.928211
1056.609499
1052.083185
918.9666395
880.1671819
813.5210201
814.3312721
801.1184427
800.8164921
798.6576504
794.1363589
880.4043403
878.7169072
1107.958835
1223.294143
1262.07383
1296.510143
1307.047899
1312.817125
1278.128698
1314.37706
1316.449551
1319.620128
1323.481095
1335.841551
1058.542705
1051.402452
917.4468731
878.9361456
812.7208594
813.3783743
800.1874317
799.2713854
799.3794235
799.6937826
892.7086797
893.6310158
1122.138148
1234.823245
1269.985699
1303.065076
1315.846284
1324.602537
1286.266639
1320.524664
1317.69836
1316.429494
1320.122798
1335.412151
1060.256548
1052.742269
917.0925029
875.0439915
804.4276442
802.8275945
790.5328877
791.9426026
793.5025211
791.9375506
803.89061
805.110867
876.0326876
983.4991724
987.3739247
1094.523412
1103.876863
1108.651572
1082.044399
1077.144527
1077.585577
1000.923461
1010.535503
982.8975591
942.9369509
936.227305
824.6523464
824.3830895
815.0976612
815.8848701
791.5999094
791.254832
790.6418256
789.262549
799.3286178
801.5075653
876.0946575
871.7090183
946.4649667
938.4521542
949.2617428
956.073492
955.8455888
947.8914547
949.4452445
953.5832792
927.8737794
900.1376664
858.0677469
842.3752356
815.2624153
805.5185841
790.5864359
792.4603717
783.294213
785.2963892
788.7226541
790.2923165
809.5894464
813.4797067
892.9595792
883.9700963
956.4120572
956.6230227
953.5180235
942.718081
945.4820204
948.0181688
958.1348643
955.1695588
927.8879833
895.3944534
863.2371417
854.4276398
822.4951039
823.5561618
813.8745725
814.3015739
812.9173436
812.1199406
811.1490207
810.8981297
903.9249335
904.8521079
1134.195871
1245.447498
1285.287875
1303.857015
1290.697354
1284.020476
1245.388894
1281.283656
1283.904906
1291.419794
1309.128027
1339.638888
1077.568107
1065.811465
934.4226883
895.833649
820.9219467
819.8359363
802.4138917
800.786259
797.4959188
795.6850758
886.2108477
887.4466196
1129.175094
1237.711493
1275.220063
1305.886625
1307.303189
1310.259655
1284.689501
1319.629235
1306.529429
1303.890008
1324.236158
1346.415755
1079.067388
1067.888987
926.6150115
881.0455009
813.7363249
819.2444399
808.5431791
812.3776143
805.9658784
802.0613512
898.3807382
899.4405295
1139.794094
1256.960066
1295.077375
1303.031344
1293.624742
1306.831024
1244.041497
1274.609389
1279.373356
1282.170071
1291.94472
1315.72082
1053.980759
1055.624295
911.354738
861.5095025
799.1100734
806.5670172
792.2690853
784.1160926
790.7962002
800.741864
901.1016295
902.9035072
1135.838606
1253.9304
1287.358153
1312.08053
1314.69079
1333.249415
1296.315968
1328.921113
1329.156617
1315.741173
1322.306217
1346.635905
1080.757116
1070.358765
933.9036576
893.2261257
825.0044228
825.55142
812.4348883
811.5933323
811.3666557
810.4330213
819.4004553
818.3302691
888.5544225
995.6400887
1002.732722
1114.400389
1125.033981
1128.261788
1096.474454
1088.604228
1088.473667
1011.373154
1019.104777
987.1464145
949.4894194
940.5094596
826.2736031
824.4967162
816.702504
818.215458
793.2257128
793.284538
792.9852559
792.547842
800.5716027
800.2005016
873.6031779
869.6426173
947.1968741
942.5075383
952.595203
954.6862219
952.9852123
945.0714273
944.6056457
945.3396727
921.3204589
888.9300236
867.478317
863.0684259
820.9721924
812.6666203
796.6610594
796.4722767
820.0046876
817.4679992
812.7542373
808.4889216
895.5085279
893.6077194
1119.983455
1231.408277
1267.893495
1299.923394
1306.430827
1308.483904
1267.069626
1302.901827
1303.967555
1303.990898
1313.178559
1325.16446
1070.423192
1068.931634
935.5871942
892.9595232
824.9409656
830.8194553
819.03846
816.8630838
814.5345365
803.7496815
901.9454906
892.0865931
1116.99983
1234.699674
1276.101342
1318.034151
1325.479974
1327.700087
1290.315735
1328.309367
1333.109027
1333.194396
1339.671943
1345.356116
1081.475824
1067.428362
925.2953807
886.4668687
825.065726
820.4929337
814.1451444
810.0481529
799.1381772
796.7441296
885.0803829
905.0836439
1132.810622
1239.850601
1287.940948
1327.842544
1315.109802
1323.294195
1287.938286
1312.614685
1312.415608
1313.008643
1320.988445
1329.203841
1057.164794
1048.142769
917.7833435
879.6565474
809.6761577
811.2044404
796.1352765
793.3345587
798.3926132
800.115063
887.1473379
888.0531551
1109.937348
1223.583297
1263.581965
1294.895824
1303.96497
1306.24981
1265.523524
1303.76712
1308.526125
1310.173478
1314.74126
1328.032669
1059.370436
1051.185938
914.4462426
874.6079259
813.334115
820.335908
807.2731503
801.768757
791.7885655
791.9951699
881.0077675
879.5698141
1104.288799
1224.479386
1257.525967
1308.234804
1328.841396
1330.545693
1294.989672
1341.040705
1337.968382
1341.180038
1347.021886
1343.787861
1057.848655
1044.224669
910.9255399
881.6293926
828.5706802
830.7087102
811.2479803
809.3546642
806.7544951
802.461589
807.8042381
806.0660451
866.6387442
975.5056614
983.2647937
1099.158938
1112.27969
1116.184759
1085.363668
1080.649513
1081.920493
1004.662816
1006.172372
973.048365
936.8678581
928.4013621
815.5996169
814.3642676
802.8530457
803.2765929
778.9707739
780.6214003
778.3543561
777.1929156
782.9820153
783.2807763
852.1667835
847.8872117
923.4678683
917.0289489
927.2374591
930.9939332
934.9457157
931.4403745
934.6592611
936.497668
912.366201
879.2505662
851.3524284
836.1282118
805.78808
806.3906428
796.2215004
795.3319297
789.0276545
788.9056113
789.7042676
789.1461144
873.8706352
874.5332212
1100.21343
1213.411143
1252.809635
1289.391403
1298.500704
1300.40833
1262.679078
1302.375036
1309.705879
1318.376802
1327.667529
1336.1071
1065.625905
1057.323056
920.6369805
881.4356496
813.3145327
811.7796755
796.9489388
797.9195026
799.2421094
797.6043216
888.6716659
890.4474008
1118.343718
1228.978478
1269.297595
1303.846663
1312.085927
1315.356432
1275.329956
1312.613273
1313.267226
1314.859375
1324.682778
1338.450591
1067.462168
1058.164801
923.1077473
881.716498
815.3356549
814.1120821
792.282707
791.5364256
793.3357939
794.4248283
880.1576542
878.05898
1108.215037
1224.57255
1264.725382
1300.656046
1312.194528
1322.417313
1292.889709
1326.522339
1321.861415
1317.827822
1328.64526
1338.36077
1062.208679
1053.454614
919.5170634
880.3062271
810.8231498
811.226871
798.8546999
796.4778781
794.8869054
793.8488724
880.2268165
882.3807009
1111.285571
1227.215655
1268.833902
1306.123662
1315.958768
1320.248302
1282.12241
1318.622823
1320.994417
1322.86814
1329.093061
1340.112583
1068.5652
1057.736312
920.254499
877.2682774
809.8838737
810.5848587
798.2459185
799.7772087
800.147958
800.3596846
889.2687303
888.4362517
1114.134593
1227.817094
1268.639641
1305.046136
1313.571098
1318.234328
1281.499331
1319.275324
1322.949448
1324.849581
1333.726876
1343.457224
1069.233655
1058.998466
921.5040821
880.443563
815.5500448
817.7164145
805.6411497
803.4509172
800.5071974
798.0514596
806.3582304
808.2857664
879.644921
985.4163025
987.5632293
1095.751284
1106.218468
1112.28463
1086.766292
1080.89875
1074.236193
990.2808011
1005.750387
985.2367725
956.7468978
948.9061401
836.9827282
838.8314658
828.5180206
825.2674903
797.7670262
794.2537124
792.3619584
791.2692155
799.292868
800.9192134
872.6831761
862.0620074
931.4899981
926.0628967
941.2555726
947.4102477
950.319138
945.8300808
948.316309
950.6716879
926.0271992
884.4177921
858.0189122
849.0650422
818.2351428
819.485471
811.1324628
813.8019881
814.0781417
813.9528895
811.8226659
809.1293561
897.7599505
899.5026223
1129.333602
1237.995787
1278.976331
1311.844066
1320.184339
1323.625913
1282.670242
1309.339254
1304.168306
1296.354262
1313.144689
1338.982865
1076.547394
1064.232219
926.1990879
882.9948429
812.5253139
812.3056805
799.3576579
797.4844974
797.4864895
798.2699252
884.0081033
880.3076557
1111.085698
1222.151093
1266.172925
1301.683068
1313.590978
1324.040151
1279.960637
1307.113816
1306.696177
1305.653853
1319.8706
1339.59838
1074.198741
1062.879481
927.0699192
887.3288042
819.0142368
820.7301349
810.5885494
812.3161143
812.8635106
813.0032765
901.8881373
900.0168955
1125.800451
1234.684066
1281.393483
1320.94836
1328.370027
1327.416347
1282.5975
1320.865196
1329.39995
1330.711563
1335.638457
1342.266882
1073.615018
1065.144425
929.4305839
888.1209103
818.3781188
817.2270994
802.8217996
800.3428839
797.5806575
794.5852662
881.7926999
881.5147964
1110.11616
1219.804444
1268.89196
1313.010346
1328.344104
1332.063418
1291.399447
1325.635439
1319.929964
1313.478324
1325.000766
1342.829666
1074.101634
1064.27167
929.0491808
888.7351826
820.5564135
821.3763946
808.9032346
807.0705606
802.8727974
798.3480977
887.3172724
886.0438258
1113.611915
1222.040905
1266.091413
1303.00889
1315.021812
1321.50895
1285.556781
1324.613489
1310.292377
1288.80188
1303.711916
1335.079556
1078.290981
1065.487147
930.6005956
891.418712
823.8700462
823.4046612
809.4280814
806.060334
801.0877321
796.2339032
801.8850193
801.2945871
875.1830044
982.4664468
993.0197735
1101.437701
1112.198784
1121.866389
1094.221743
1076.668134
1065.469161
979.9720713
996.3378029
980.1399931
962.1501256
950.9647211
836.6723672
834.4716507
822.7466275
822.9681777
798.7460022
798.3574118
798.6446777
799.1248105
808.5553815
805.8807689
875.9429749
865.916165
945.636952
939.2431771
948.9732262
953.7594179
956.5127293
952.1092276
937.097142
922.6199391
905.5961795
886.8970765
870.2351399
858.0419012
823.3670231
820.3176772
807.8854568
807.0873335
804.0473034
801.9467813
799.3699886
796.6832389
884.705627
885.3866038
1114.240884
1223.37059
1267.487822
1304.431438
1318.272154
1324.256813
1264.353866
1282.753482
1274.384091
1265.121904
1277.886078
1299.576443
1053.346184
1059.125945
937.6643487
896.4888225
824.7646227
822.6333185
807.5223638
804.2446686
800.4065103
796.7463376
886.0828254
885.7533712
1113.861017
1224.667369
1277.173297
1306.867895
1293.21431
1272.914855
1216.967002
1245.619761
1256.79015
1265.838669
1284.504506
1299.27532
1044.976622
1051.767761
931.7850083
887.3422114
815.1907839
812.5353033
797.0055895
794.1669781
794.0555557
794.7943139
881.4842302
882.5852859
1114.580213
1230.025523
1281.537316
1313.498953
1300.976457
1285.746455
1230.692447
1253.907775
1244.916298
1236.249257
1239.156956
1257.927986
1027.723168
1034.637138
910.6888639
880.0465621
819.7005351
828.5984179
815.6941234
811.9435687
808.0324838
803.7745781
891.5094438
893.0670889
1124.62956
1238.411415
1287.074066
1319.121981
1308.211965
1292.180703
1236.679805
1266.8996
1269.199099
1270.533906
1289.060383
1317.026684
1076.070149
1073.173179
935.5473295
892.9172162
822.8241039
821.6385309
807.2297388
805.4034847
804.2149806
803.2591912
893.3344557
891.3879418
1124.127679
1225.43882
1268.646708
1315.5172
1310.497432
1292.303174
1234.820665
1261.418824
1256.376732
1252.037436
1263.167206
1276.940889
1036.465936
1042.028816
915.9946318
886.9393026
824.6244733
821.0521102
806.9106851
804.2533391
803.4909127
804.2971304
808.570848
804.2366362
872.1753655
978.6792051
998.8078616
1113.95223
1109.339577
1098.601411
1054.625486
1043.531905
1042.878743
960.9024166
987.5826656
983.6208277
957.5866218
941.4589852
826.134571
823.7204753
812.2314986
812.3999433
787.9720611
787.3733789
787.1710361
787.1043804
796.4540861
794.2189725
860.7781172
855.5331198
937.6373716
934.3015087
947.2045274
954.3689231
956.4276393
949.4910076
952.7781519
953.0636407
924.9725684
878.1260939
854.6745901
843.9674193
809.8766915
807.3658748
795.5227057
796.8205017
785.1479789
785.5882958
785.519758
785.5667209
792.1589628
791.9084553
860.17128
859.3947556
942.4034654
938.2997392
948.4585615
951.1723406
951.3868146
944.4981116
944.2935534
943.9217926
918.094779
875.0854927
856.1732047
850.0874772
820.1868079
821.401014
813.4098708
816.4772902
817.1504247
815.8991655
799.2382172
785.7846893
885.6321514
905.7694797
1140.91109
1248.265485
1286.534251
1317.219065
1322.83653
1323.249957
1281.128792
1314.306687
1314.915984
1315.869272
1323.000101
1326.359552
1068.608604
1060.246002
926.5137546
887.5661428
819.3507088
816.8302283
800.6234004
799.7168032
799.2793856
798.1043647
883.5361509
883.8007961
1107.597768
1219.21898
1263.955361
1304.819705
1317.688619
1320.543336
1282.606234
1321.525389
1325.247426
1329.83564
1339.965542
1343.060931
1081.687838
1073.570765
936.2470646
895.1453274
826.977562
821.6122079
804.9166076
801.0985693
797.1275666
793.2806157
881.2448301
887.5148226
1119.93884
1237.535255
1279.707358
1313.124135
1323.900307
1330.601006
1287.514853
1327.911848
1337.07616
1339.653229
1346.440054
1350.001879
1086.827948
1077.683491
941.8997992
900.9903887
834.2257865
832.063418
817.5866453
816.2083424
814.6560941
812.5564463
904.7480299
908.9828415
1135.901722
1247.472376
1285.397798
1317.439905
1327.933688
1334.297989
1297.265227
1331.748164
1331.797931
1328.032809
1337.440609
1341.999683
1078.553204
1066.177885
924.5383815
881.0835727
819.1031997
825.6633759
818.033658
816.7384439
813.9633657
810.6861975
816.644912
817.0121171
883.8343392
988.2288033
993.6726753
1101.83178
1119.186816
1134.65748
1117.546516
1112.024783
1108.651553
1024.736693
1026.204663
980.4001578
949.6887309
939.2728743
825.9737706
824.2838912
816.0991848
817.6166857
794.6350124
794.9172165
795.7198413
795.2429799
801.4314037
800.269621
866.5642035
856.8733464
933.3902566
927.2516078
941.071958
947.9628781
951.5504517
942.3043258
937.6391866
934.3739097
916.3536263
882.8084533
861.7336692
852.4061639
819.7895715
818.5785338
806.8801381
805.1939436
800.7612724
797.5849504
797.4426257
797.0918905
884.02322
884.681065
1107.642392
1216.541234
1258.922265
1300.672805
1316.491478
1321.192797
1264.613928
1289.710856
1287.716028
1285.21772
1302.445351
1324.742611
1074.654284
1063.662275
928.1365704
887.6599102
819.6462925
820.8680777
808.953204
809.0660297
808.5185784
807.7576786
900.0733588
900.4262627
1124.762692
1235.181769
1275.074402
1306.797922
1314.31719
1319.723047
1287.712765
1328.027831
1333.692745
1337.976154
1342.427206
1341.685234
1075.311438
1070.113899
939.0390864
901.9454334
838.5186942
839.1330345
790.961297
796.1068292
801.2971449
803.217094
895.5383728
898.4501862
1123.47917
1237.949444
1282.13258
1316.796688
1325.365964
1331.601127
1258.916341
1266.118867
1244.960643
1234.060484
1251.533984
1287.513589
1072.174934
1069.828853
939.534668
898.6403792
828.9027517
829.2417361
814.263167
811.5821107
812.505719
812.1933507
898.7386073
897.802972
1127.804321
1247.729539
1269.682396
1281.180291
1278.092501
1268.180625
1227.695413
1252.542789
1238.24145
1227.253533
1232.355626
1236.671605
1005.772064
1057.933711
938.8335056
901.1051376
832.4076072
832.9449623
818.1782938
814.3529445
812.0219777
809.2424116
898.562984
896.3610312
1117.284558
1240.116466
1269.396114
1282.872118
1289.86647
1278.228938
1228.474739
1256.6781
1262.568915
1274.352781
1286.524897
1288.041301
1037.479558
1036.418481
911.6210445
880.037399
814.3654595
819.2703668
808.6739565
818.3154811
822.3722048
811.1863283
826.9181979
831.6067109
896.1032366
1009.486928
1009.702443
1102.297659
1098.554691
1094.001637
1044.01135
1030.41795
1037.649031
960.8176958
989.1030884
950.7843286
929.2225291
919.2169371
804.5394851
807.7302392
796.11874
795.3529691
775.1946291
773.5345718
793.4323431
795.2464311
803.8547314
811.2119535
882.9001969
879.1301193
963.4667831
948.8579849
962.5054298
961.9417655
956.4273923
954.6896776
952.9179765
953.2836997
928.692528
881.9105424
864.8129392
855.7134189
823.5259711
822.6527315
811.7643211
810.275195
805.2857416
803.2828607
802.9220114
803.7784335
895.8898549
898.0291968
1118.46125
1235.79961
1283.077784
1311.465979
1304.232607
1296.913162
1233.303786
1255.524346
1259.071068
1268.639088
1285.187348
1297.28399
1055.846664
1056.771791
926.6067641
892.4181398
827.1685354
828.2131682
815.2663704
816.3818319
814.854924
811.7101163
902.8349674
900.8741797
1120.106883
1237.093588
1279.162548
1286.515777
1284.984083
1275.280139
1251.790993
1278.383484
1245.342897
1257.19963
1288.79403
1315.76659
1079.113331
1065.129671
928.0223002
886.1745864
816.5122511
815.0377201
800.5975051
800.8980479
799.8797667
796.9004823
884.3139271
882.7248753
1102.429301
1222.738967
1272.888355
1317.999267
1331.656416
1319.62314
1248.946798
1273.427912
1280.375521
1293.979549
1309.980869
1336.398256
1076.547572
1064.208015
926.7995992
884.883983
817.0202701
818.8893727
804.7869277
801.4335346
800.069241
799.4371867
890.2496935
894.1061168
1117.417278
1238.899985
1285.065283
1323.072782
1328.86433
1314.967848
1268.927045
1299.306858
1297.150479
1318.72182
1340.52659
1339.496085
1074.830411
1066.877712
932.0622793
890.8965011
820.6114322
820.7652094
806.9931379
805.552097
802.1816708
800.7640296
899.9267959
906.1630519
1131.430791
1251.464695
1282.475066
1307.61207
1319.874876
1294.318559
1245.052337
1289.731573
1283.794509
1291.580617
1305.204661
1321.951127
1082.7583
1071.008434
932.4709265
888.3132218
818.0945535
817.4089752
802.9222057
801.35799
800.2830777
798.8345748
806.8101091
805.4628089
871.9585244
990.5215202
1007.999065
1118.528313
1125.483905
1107.173679
1058.357054
1055.528032
1060.25467
983.6116407
997.9483156
967.729714
952.0599688
951.421667
839.3527076
825.5344401
806.5954255
809.5159851
812.7633437
821.2007282
813.7914936
816.590691
818.9845474
888.1397372
897.9306027
957.6610239
928.5795455
916.7145781
923.3226864
920.2872043
911.6179274
919.7466639
925.5833415
898.0057719
840.6522613
819.2464158
809.0351382
788.6613123
811.7205707
816.1572344
809.7753487
805.3224369
817.2019763
810.8214335
803.900395
893.8401792
889.0160801
1111.214561
1224.76117
1265.117515
1289.925449
1300.11607
1295.062432
1241.091835
1256.556284
1248.227423
1240.609082
1260.656068
1281.28996
1013.91432
1036.139676
910.0020068
872.6946537
816.1973471
830.0541354
809.7284125
811.8379025
808.8965869
822.6174399
890.7253366
895.7536586
1121.711478
1229.556528
1268.909522
1310.498239
1296.209829
1291.189425
1237.76585
1267.298403
1256.642695
1248.632557
1280.612696
1293.849973
1043.519655
1082.826547
955.9258409
896.7635242
822.3593871
820.6933658
802.035455
800.1412498
808.9661207
815.9825719
882.7910563
888.1508963
1124.616836
1240.131743
1281.512163
1322.182784
1328.614572
1311.38291
1257.455044
1285.425409
1287.921462
1282.288029
1290.629035
1297.417961
1044.825868
1061.940332
935.5710704
898.9452272
830.890227
830.7563635
819.3131694
815.1827893
810.3229421
807.4389359
892.9365806
904.0505496
1145.082818
1252.080021
1277.654858
1317.319322
1328.179788
1332.396528
1286.336869
1318.717476
1319.305075
1319.59149
1321.708245
1328.077487
1056.904427
1061.743873
923.8689395
881.4365181
813.0040934
813.3845706
800.2469823
800.4809282
799.1043432
795.952127
886.5969244
884.9808701
1109.726669
1221.382827
1266.670011
1313.080784
1328.610941
1326.047402
1278.111912
1298.258711
1290.370937
1275.901743
1302.780068
1325.03063
1057.689542
1062.273366
927.3323298
888.4888371
820.6507708
821.3724447
808.8687447
808.8155111
807.6273873
807.0000233
818.4180379
817.5878061
889.4507312
1000.805182
1009.440099
1121.352388
1131.486071
1131.066662
1091.394926
1086.560613
1074.990376
988.0628858
1003.516271
973.5867731
943.2155465
947.7096213
832.1575724
831.9074417
824.3021645
826.1216439
811.8904324
797.7801562
793.7380376
789.6535779
798.5156107
800.9690123
874.7948175
878.6851595
961.3546769
954.5353777
960.8799258
963.9912147
959.0973117
945.1063478
931.0030744
928.6250585
914.134717
879.2900558
845.4694884
843.160678
812.3701848
811.0706854
800.5204457
803.0696256
791.8775817
801.5298111
799.6838497
798.5948467
885.5355203
881.4031975
1108.694359
1222.30168
1264.747169
1308.443455
1317.512949
1316.642804
1271.446386
1298.619729
1301.545725
1309.125433
1326.957568
1329.980664
1053.427509
1054.256545
920.8246063
879.98773
813.1167786
815.2391599
802.638333
803.4782407
807.1777276
807.6765622
900.732564
900.3199043
1126.90854
1240.847306
1284.901796
1324.122211
1327.20694
1320.481011
1267.785585
1298.188046
1304.82561
1327.145859
1331.910126
1327.614829
1046.690347
1049.83745
922.7200007
885.7601971
825.1244469
839.0847091
819.2443586
818.7283711
825.1937268
825.2721547
908.4824124
906.6868347
1133.45298
1234.640881
1268.376101
1297.204059
1308.342488
1317.851385
1280.422153
1321.099394
1332.418619
1331.413815
1351.003232
1348.053843
1069.489343
1073.656452
938.0367861
894.5141641
827.8490648
822.8994119
803.3813824
801.4819794
801.6995599
801.0723367
887.9982804
887.6501297
1110.400623
1219.460989
1266.294814
1307.659475
1319.504914
1321.857167
1284.714528
1326.778707
1329.746407
1331.114573
1331.480539
1332.523857
1055.647357
1058.149009
925.5927939
882.3729139
814.1725926
814.5507818
809.345128
815.8996809
812.4608992
814.7071297
913.9816157
912.5548815
1134.116999
1236.241299
1273.332266
1309.418488
1327.934277
1330.398596
1284.04034
1314.330895
1315.381277
1322.297745
1329.833958
1327.74681
1048.998411
1050.70922
918.1443883
876.5473885
808.398395
808.2624299
795.4172995
795.2691747
794.7003453
793.6656453
803.5405996
802.9290345
874.0328671
978.265562
989.3748743
1100.353959
1110.91019
1119.099199
1091.354034
1083.140407
1085.791843
1004.415329
1015.873384
972.5755361
931.632184
933.6851679
825.1084098
825.6010587
817.3513162
819.0772
806.7967036
796.094834
797.2168127
797.5117905
807.7113492
806.9829705
879.8736333
872.9013471
954.295449
950.3705723
948.6593898
942.7006137
927.2575667
914.6581355
908.6014794
919.5810779
901.3301526
871.5528262
855.1614369
854.2584705
821.8725032
818.192349
805.7839422
806.1891215
793.5615068
804.6575833
805.3921819
806.4088927
895.6063505
895.1153681
1123.563477
1231.64156
1273.771586
1311.016936
1325.189209
1324.261756
1258.690938
1273.301795
1265.478617
1256.447924
1262.213802
1282.708744
1047.466203
1071.940521
936.9229494
894.216004
825.0216013
825.5113157
810.8028619
807.2136867
804.2530183
802.221913
895.8450641
898.7780139
1128.523856
1235.963615
1279.551484
1318.534295
1325.116356
1311.459893
1264.131797
1274.871294
1272.976459
1277.576055
1284.592166
1286.796044
1048.523204
1062.587218
927.0332427
887.1418983
819.4364866
820.2155256
806.8928906
805.4706882
803.3298644
800.8093222
888.0659277
887.4041537
1120.513812
1230.801127
1279.410807
1318.340249
1314.921995
1309.294305
1256.399708
1259.927133
1253.490348
1249.538362
1261.832339
1282.363039
1023.13863
1044.088836
931.9615295
895.6699426
821.8579307
827.9888304
823.017826
819.854899
816.2925625
814.5842686
903.0696507
903.4057851
1133.082604
1244.328623
1289.935063
1314.697062
1313.908702
1308.508078
1255.031932
1285.61304
1291.2913
1298.56037
1318.040136
1326.682326
1060.52745
1061.484019
927.8089243
886.9120134
818.0961258
818.0302104
804.8661991
802.5330346
800.555476
799.0477936
887.4738438
885.4628291
1115.649535
1226.04542
1276.795245
1316.554374
1313.62712
1297.355956
1246.476047
1264.400808
1263.076749
1272.253406
1287.257124
1301.669271
1045.43673
1062.714536
930.6929638
890.5845996
826.2589233
829.5953787
799.5361973
826.7621442
818.4434952
846.92291
832.9142422
809.9880094
870.0759185
954.681177
959.2366353
1067.965501
1062.400855
1065.900101
1033.094416
1014.398986
1015.635356
945.7650002
953.8455929
902.8859678
882.6909548
902.0551034
795.7459523
796.5579884
796.5410558
802.6891103
796.2301191
800.9962844
804.2470718
796.8765663
798.3430098
810.8091297
877.3153393
868.6302891
927.5624045
909.3193947
910.216346
904.9991549
891.6370878
870.6606434
857.2168504
856.418413
833.4035701
788.5311912
771.0376214
791.6501821
772.7229746
773.3173819
768.5202963
772.234716
768.5564163
786.4664578
814.9980648
821.5053008
908.2692631
908.6647362
1133.079882
1245.199486
1285.585579
1298.867281
1284.897962
1269.9424
1219.707557
1251.790118
1247.424494
1239.650729
1249.297928
1267.982243
1021.350099
1050.636616
931.0825396
896.7408228
830.5823269
828.7693428
814.4647206
814.6551577
813.6661418
811.9739692
903.1472204
902.6392153
1128.559837
1241.763221
1286.130079
1321.749112
1325.992184
1316.157848
1262.128992
1292.577588
1297.087393
1299.41697
1310.328018
1322.022382
1060.699773
1061.826764
929.2821068
888.1749573
818.9629961
818.3339323
805.4516451
805.2901984
805.2364539
804.5356974
894.0015218
896.1773987
1123.68369
1237.524965
1280.231048
1316.678417
1327.212822
1324.209511
1271.505306
1299.079161
1297.319798
1297.787648
1314.340778
1324.185566
1059.138769
1053.349336
922.7825804
880.3613929
811.2431754
811.7367546
799.5725773
801.6293826
804.0560859
804.3309396
892.6538521
892.2174185
1117.632167
1231.801299
1275.563407
1311.624343
1324.870071
1320.928227
1270.094509
1297.022594
1300.238844
1303.528048
1315.815402
1328.895678
1056.152307
1051.756128
922.6029305
881.8138009
813.6752652
813.6289732
800.8774845
800.1415654
797.9126753
795.3315532
887.9878763
890.2137049
1117.517157
1231.529403
1277.522486
1317.886225
1332.296165
1328.862876
1273.2329
1286.575503
1261.388044
1281.128406
1304.938901
1327.111156
1063.914767
1058.859001
929.2396457
885.6811517
815.5256998
815.8616803
801.5916121
800.9724228
800.7819175
801.1374206
812.1313731
812.3888351
881.2490273
991.5621064
1002.941585
1112.346351
1121.828765
1126.898726
1097.834465
1090.471057
1089.921224
1010.522085
1016.711425
972.8222123
932.1038858
931.8565506
828.095649
828.0985396
817.9332741
819.7405979
808.0261985
796.4861638
795.2016395
795.0906438
803.8464094
802.0816075
870.4297636
867.517958
947.6294073
941.9424448
953.0111783
951.9032145
938.0883993
926.4423143
926.7282378
926.7304993
901.7569788
869.4897772
849.094199
846.4330337
819.1491561
816.6706231
803.6934102
802.74198
789.1927356
799.0851522
798.2227968
798.2599785
887.2486151
887.8295505
1114.52424
1228.811164
1272.406118
1310.841712
1319.186829
1311.709983
1269.282786
1295.386857
1295.717515
1298.308267
1313.803186
1327.851223
1061.24345
1058.373608
929.6090578
888.5384385
820.5114059
820.6038273
807.2266789
806.9455921
806.8605423
806.0284401
896.7814745
896.5843795
1122.928867
1237.307291
1283.794277
1321.289601
1320.615708
1293.148455
1254.937086
1298.730454
1275.428181
1264.973695
1262.540245
1260.871942
1029.408958
1061.35793
922.3727992
886.5905243
822.9779342
831.293689
817.1348824
815.1004644
813.5361853
814.1488744
905.6703979
909.2504097
1132.805093
1240.599972
1258.338399
1278.64913
1272.041168
1268.808053
1223.582816
1278.567768
1261.071055
1260.754767
1265.844556
1268.702023
1005.321955
1018.232525
894.4520837
856.4022609
809.9739896
808.6267038
794.2936618
788.1324209
789.3620143
784.2478675
873.3478492
876.1274601
1112.021232
1219.223208
1253.698422
1282.00768
1287.078755
1268.414187
1224.532348
1267.160062
1268.191089
1277.619051
1287.874666
1300.461236
1042.024022
1052.847357
927.9049823
890.0742564
824.2866125
831.6298015
818.4567492
816.1066801
816.1829545
816.2677542
908.5787802
909.2922434
1131.013028
1249.214748
1294.125054
1328.278703
1321.66183
1317.06911
1281.698374
1299.198721
1300.341375
1296.42424
1298.097797
1307.301275
1056.694928
1066.157873
937.240555
896.3774305
828.3062301
827.3598354
813.5364705
813.1260168
813.503802
814.3874059
824.8639101
825.4420442
890.715922
1003.683897
1014.855098
1123.690218
1123.957145
1109.746482
1066.30873
1060.402085
1072.046404
1003.221977
1013.628309
961.0423841
926.5880944
936.7185046
837.5926257
836.4574264
825.7574878
826.2638332
812.055659
800.604128
799.4220652
799.1630786
812.4231815
812.1707435
877.1426772
876.3090139
955.2867131
938.0423329
937.5343569
929.8271256
930.113509
925.6832506
919.973299
921.1230701
902.6048143
857.5940837
831.6977804
836.9762465
810.8448341
815.6636402
813.5993732
820.9447554
810.9871776
821.1012163
819.3009339
814.6190293
902.6879489
903.4197761
1123.355472
1239.495966
1281.225969
1317.418176
1325.443962
1311.085904
1261.801057
1293.743596
1286.754897
1277.095134
1293.786871
1301.32351
1043.356691
1054.834841
930.1888705
889.8508973
820.7375439
822.3054904
806.3200872
803.3968129
805.218999
808.8782289
900.1191634
896.3178277
1112.868375
1231.458571
1280.950314
1320.268903
1330.678498
1324.080757
1264.142977
1282.83072
1281.261725
1284.910011
1292.337547
1297.090338
1041.289984
1057.771374
933.973799
893.758641
825.8394328
825.9017752
811.8847974
809.699895
809.0424982
807.6921855
892.743678
887.385848
1107.18582
1231.685731
1285.245524
1317.810671
1310.467944
1296.077071
1246.751316
1278.604486
1278.110537
1280.37185
1290.846707
1305.651123
1051.316824
1061.357067
934.2610284
894.9576575
827.9865492
828.4995664
815.2121998
814.2992277
811.1233701
809.3043294
902.2778664
904.0142286
1127.377938
1248.443778
1288.072278
1312.965504
1309.345509
1303.290472
1240.623046
1266.195329
1270.222079
1274.216809
1287.137006
1293.313698
1033.381825
1052.350495
938.1761332
898.9605183
829.9532691
829.6188034
816.8655832
816.1099108
815.2434099
815.0187116
908.6717671
910.1000802
1132.002466
1249.732461
1292.791073
1326.171289
1320.771555
1320.609248
1269.714386
1307.85539
1314.474633
1322.625499
1334.748933
1338.294456
1058.483819
1056.225376
928.7919075
888.5110862
821.1423117
821.5033569
808.6005062
810.2701025
813.1935812
817.0897712
819.4057956
816.4586537
877.683853
989.4201441
993.0966624
1087.89175
1112.133882
1103.911705
1082.982315
1071.829816
1066.015239
992.1295805
1003.619833
971.072095
937.3191142
929.2732559
826.6782795
824.8393842
814.1197601
815.52584
802.4346254
790.0916811
787.8249165
788.3146741
798.280474
796.9643563
858.7432487
864.3236941
946.656965
942.5127955
948.1757387
942.1564269
924.7579517
917.3881969
920.2401372
920.7966193
899.6515701
863.3298313
846.1352947
840.7210997
818.6058136
816.9650734
805.768331
806.5780319
792.7970239
800.4452334
797.8676087
796.5782063
885.4311852
885.2111039
1103.343027
1228.928472
1278.575672
1316.261768
1318.378962
1305.873327
1250.671908
1277.246128
1283.005429
1293.349777
1307.621983
1313.695266
1050.850598
1051.494625
925.2717086
882.815926
815.3972246
816.9407034
804.6071527
806.878518
807.5473286
801.2610215
893.9294038
896.3527257
1115.506723
1239.038198
1286.356755
1312.187629
1303.430204
1288.400281
1255.421702
1273.557076
1268.492591
1273.105278
1282.652505
1297.329629
1048.885402
1063.326363
938.4159964
894.4187286
822.6304869
821.4812533
807.1505773
805.1547142
802.5089914
802.08104
892.6045417
892.092539
1112.874733
1239.737394
1265.981758
1283.427223
1284.680833
1271.985305
1215.498938
1238.199791
1227.305151
1231.693724
1262.842417
1268.022279
1016.697543
1041.449225
924.3692947
894.4404474
826.0180102
823.9209217
811.3125063
806.6767608
807.7413468
809.7263004
901.546605
904.6953573
1125.829648
1249.999519
1276.23812
1296.591264
1284.97841
1272.694288
1232.393568
1273.984142
1305.441673
1305.858483
1316.213765
1321.325142
1058.260616
1054.468647
926.5275584
885.6728326
821.0067308
818.3334736
809.0538728
810.5383672
807.3849178
805.4016761
893.5030914
901.9809873
1122.639444
1240.405391
1287.14899
1327.443297
1333.27002
1323.906348
1272.900685
1302.361261
1303.022336
1299.342034
1315.412808
1325.805213
1056.208656
1050.162608
921.485929
878.0718471
810.7788071
812.203403
798.1060594
797.6741124
797.2332416
797.4022899
802.3362184
800.1816317
861.6654745
983.2135127
1001.53838
1110.309519
1098.360264
1097.093437
1056.599373
1034.819043
1046.816427
977.2351865
988.6981971
957.2774763
931.6693813
934.714257
830.1228053
827.5414182
817.2068192
817.959093
804.4683654
793.2200843
791.5773343
790.5086711
800.6462469
798.8009602
859.2084106
866.3485868
951.8660917
945.1731104
938.7151032
929.6551897
920.2117331
912.4493891
919.4067615
924.5291212
904.1694029
866.944282
844.4624048
843.450721
819.2921242
816.6778772
808.2939364
813.7797824
802.617394
816.4529575
805.6103635
800.977628
877.2946138
891.3225914
1110.019671
1196.043401
1212.625072
1241.505335
1246.344939
1242.255164
1190.950908
1216.51693
1217.770719
1227.145513
1244.142738
1249.596486
992.2667126
1005.077177
897.3707956
860.2715129
799.2258163
815.8330441
809.630669
808.5266102
816.1165525
818.2488128
908.3693706
910.2502666
1125.542544
1216.304317
1227.271399
1249.649624
1252.21731
1246.706646
1200.626308
1238.695097
1244.786832
1249.148936
1275.948829
1300.882176
1038.137174
1036.676162
915.4887716
876.1282403
816.6584043
824.9958769
811.2334216
808.7608038
807.1890388
805.3897824
892.7992922
890.9983711
1110.2724
1235.038767
1281.450385
1308.690559
1301.191964
1291.40469
1248.76378
1290.208885
1294.535121
1299.571785
1310.50438
1323.995105
1055.547187
1049.664698
928.3080908
886.399236
820.8739108
813.2620182
795.5692852
796.8580887
795.253758
794.0972737
883.0177276
884.7431712
1105.022141
1233.194462
1280.662495
1302.482451
1303.496429
1294.619274
1238.380636
1266.55278
1262.44916
1262.237768
1288.206231
1308.549912
1050.747461
1051.548233
926.8959661
886.12028
817.9278084
817.9837543
805.1287554
805.0564656
803.7190494
801.6277513
892.3652664
891.6197058
1112.092933
1238.754684
1284.643477
1302.28125
1298.136011
1302.270945
1253.322734
1287.740805
1294.385655
1290.110708
1293.593493
1310.867012
1053.532993
1055.301606
928.1407623
885.7714414
817.418125
817.6229193
804.6505498
802.8712029
801.7690407
802.1697308
812.4971155
812.5020198
870.1758359
994.9592876
1010.806421
1115.848466
1115.50387
1110.926466
1077.262083
1066.577145
1064.695412
991.2515284
1017.56651
979.7402702
941.9228974
935.2832646
833.5919439
831.9303038
820.6001664
820.8953377
807.4596051
795.9201755
795.8105455
795.0883148
802.9784319
800.6077113
857.5308757
867.0628417
951.4406866
937.9354344
934.1846152
929.7327637
923.2561758
918.5487889
921.7205659
925.8530137
905.9471132
868.0577127
845.9599256
840.0892044
815.5820824
813.8049946
803.5367556
804.6056527
792.1442311
802.3721581
801.1414648
800.7738373
890.9979185
892.4815183
1106.15982
1231.862503
1278.663691
1312.391845
1306.416232
1296.589417
1252.095822
1285.06749
1284.863294
1285.416555
1304.515158
1324.790177
1057.433885
1046.2478
923.3545139
881.0492111
812.0206062
812.0895294
799.6255608
800.3291571
800.5803394
800.6447413
892.9827971
892.507131
1105.416789
1231.114555
1277.133007
1311.546739
1310.170088
1298.476552
1240.994382
1265.797218
1268.110448
1281.826311
1306.990648
1322.775512
1059.357618
1047.779338
924.6713422
882.2858796
813.4051161
813.0627489
799.5524081
798.5096513
796.860505
795.2152533
884.7256857
887.2453274
1103.344842
1231.073025
1280.415595
1313.883653
1311.857786
1299.199716
1246.540295
1261.323481
1251.782416
1259.011936
1275.91928
1297.717937
1034.836765
1036.962951
929.1994623
887.6871566
818.6885401
819.1963084
806.9929881
806.4888381
806.4889406
806.0298063
896.4909392
901.3797665
1118.629002
1233.398787
1238.333503
1255.992187
1247.559566
1237.549743
1194.675289
1229.237934
1236.143067
1238.981549
1253.48647
1250.86065
968.6883423
1013.432193
910.4467804
872.3484174
809.0471087
809.4758888
802.1786295
809.7693227
815.5790861
814.7421377
908.0647608
908.895386
1123.791487
1224.706022
1233.13986
1256.022596
1256.429131
1243.174134
1194.816194
1231.332632
1231.636473
1230.475183
1258.849966
1280.244456
1015.726584
1017.06078
908.0432089
874.4197384
806.6305745
812.3008275
802.3073866
796.9526592
799.3206098
805.9157041
829.3064851
833.4056427
874.0509272
984.044693
984.9698966
1068.829681
1050.124524
1037.765764
1000.188931
994.2154942
996.1644294
916.5734704
922.5621987
879.4558182
839.2075236
829.6095508
766.3847091
775.8618903
765.01852
772.0401679
765.1372957
773.4275407
779.2534044
765.1488679
757.962393
752.7010013
802.2595091
798.7319142
862.0976157
853.8215636
867.5879881
866.3885062
864.5667131
857.8469174
861.1378172
864.2682455
842.8114525
795.833437
765.1142014
756.0896945
724.1811197
726.994426
736.6269398
735.7095439
720.2639056
745.3012172
760.4928478
763.795915
851.2657423
851.1105992
1055.887752
1173.53042
1210.183428
1235.38517
1234.432254
1226.916143
1182.844072
1216.851789
1215.774178
1228.540224
1236.951789
1226.87099
960.2578243
960.2028148
851.2715444
803.297142
729.3718818
730.1620635
720.4169757
724.6858795
725.5134485
738.0813182
848.2146373
846.4299895
1054.23588
1171.15372
1201.729958
1227.941546
1228.826975
1226.947117
1187.908906
1227.843317
1228.763421
1227.952974
1234.959456
1232.861223
960.9579324
972.402886
867.2906461
833.5191611
761.2289971
759.8041228
751.1277947
748.9914622
752.4330534
759.4024493
855.3484295
862.104536
1072.725378
1190.755554
1228.181129
1257.134478
1266.000222
1260.173372
1211.920889
1240.649083
1230.582335
1223.080277
1230.400543
1230.89117
960.4877336
970.8513612
858.5930569
818.3653414
757.4891828
763.0546746
754.0140091
755.9321946
771.4750177
775.4901548
866.9275188
878.9566317
1087.302578
1200.909736
1234.915403
1261.337752
1267.092415
1264.309487
1223.742141
1256.717449
1252.874584
1253.976843
1269.228663
1274.35632
1012.909648
1011.319518
900.7730299
869.3202639
803.5991355
807.3782651
805.5022849
816.9196631
822.39737
822.5410835
904.3446501
913.5170304
1130.354858
1230.512625
1262.058533
1281.898761
1291.117213
1293.016902
1243.613843
1264.528429
1269.4942
1274.619813
1287.436552
1294.278091
1037.957489
1047.015692
935.5164916
894.2099502
826.2362783
827.1798026
816.1545412
815.9577597
814.5421407
813.9735037
824.0575474
823.2757345
881.5257832
1005.696075
1014.233124
1106.548025
1098.334143
1095.527743
1059.287783
1056.613703
1060.281239
982.4317395
994.2238461
965.8505947
936.9501759
936.0118185
840.0733997
837.9531555
826.5963819
827.3562851
814.229002
802.806313
802.8740234
803.9366992
816.3225118
814.9494027
869.9679599
872.3564661
942.5910574
914.1965512
894.829896
873.416567
855.0582328
849.1745571
851.3887409
850.8948563
821.9730165
779.4001049
787.0964963
791.6241433
787.0347314
806.2079704
815.3089644
824.8917589
808.2488092
816.7215728
815.9935783
815.2714692
904.0302194
904.1790426
1117.42068
1243.937516
1282.219149
1297.41119
1292.838915
1289.290118
1246.947366
1276.407406
1272.565917
1280.061924
1289.511079
1292.027188
1034.885289
1045.709947
936.2827659
893.455934
824.8457653
824.9254873
810.7850339
809.3403101
808.24152
806.7527662
896.9571929
891.5484847
1110.331048
1240.510694
1274.401403
1291.736045
1285.799546
1276.60193
1231.523573
1265.539174
1269.536865
1278.277734
1284.132342
1285.258254
1035.697601
1046.883451
936.3719125
895.6816696
828.8359354
829.0581103
814.9876534
787.382768
776.6462444
791.6358314
872.1761928
867.0464629
1082.025106
1198.469702
1231.100313
1255.209355
1255.616165
1251.416499
1207.382115
1238.430011
1237.831357
1241.427541
1265.186716
1266.506976
1006.821778
1021.864166
925.8444141
898.5992558
831.1487914
826.4289584
818.4940384
819.7229065
819.2312659
818.8155161
903.9124206
906.5195294
1092.483587
1177.573599
1209.34442
1237.614205
1240.507068
1235.890244
1193.883625
1233.354816
1239.199899
1236.17395
1242.143584
1241.718249
962.8159263
996.9584006
911.9251505
877.8505155
812.2203484
818.9559979
813.0911742
815.223857
814.9548761
820.1794692
915.0394485
911.7894947
1122.824207
1228.682984
1269.509587
1306.872155
1308.698445
1303.654499
1274.551593
1307.802805
1309.286282
1323.812739
1334.058482
1340.208819
1061.988142
1053.774622
930.5116842
893.9037817
825.3936928
824.5123923
810.6884977
808.8467432
807.563407
807.6176638
817.8826455
813.3501379
874.6941499
999.1866183
1012.612195
1114.332098
1097.952905
1083.538843
1050.92974
1032.567168
1033.123509
971.408199
989.8000766
956.7899644
929.7910784
934.4153807
832.4672704
832.2311178
821.1847853
821.1657715
806.3509513
793.0326153
792.377813
791.2597762
800.1438719
795.8698679
858.1473123
868.848044
950.5491192
931.093243
928.3569621
927.253236
935.4599172
935.9814354
937.6267756
941.3728093
917.8985966
874.4133814
847.2420077
835.5990645
813.704876
816.2902682
806.1188137
806.5629906
793.9564858
792.4931885
790.3753677
789.7023069
799.6660889
795.7149292
858.0992978
866.6647602
946.6901907
941.1823602
952.6631321
945.8076285
934.0964389
923.7802831
928.2894801
934.8168191
915.7993563
879.287872
849.2727245
839.1047906
816.0513902
817.7788092
807.2700852
807.5736237
794.2309574
804.2045348
802.4455612
801.2017683
893.1325162
889.2908613
1105.711528
1231.568556
1278.268539
1308.717124
1306.906411
1297.925893
1257.088486
1288.834515
1294.148413
1294.62446
1306.868355
1310.915476
1055.640741
1049.976308
924.0020374
886.9221078
819.3739444
819.3323656
805.4947478
805.1460147
805.1066052
805.0845158
895.4244251
892.8898985
1111.795485
1239.014623
1285.126276
1303.902217
1291.966399
1277.761831
1225.360677
1263.039069
1266.896861
1265.918556
1270.636186
1276.357772
1022.929163
1027.567362
919.5204882
895.518126
829.7534793
834.8207256
820.8585866
817.8509219
813.7899826
810.5770753
898.9640823
896.0778539
1116.199391
1237.30139
1240.107014
1253.298901
1252.974389
1236.715139
1192.212143
1231.505862
1246.568238
1252.988776
1250.688848
1235.37246
995.7508518
1007.956892
915.4067785
900.7533314
833.4252795
832.2931415
816.7483542
800.2429569
815.1650438
822.0909869
908.3539023
893.9050905
1085.795206
1168.528391
1187.713915
1228.092962
1238.185716
1248.605525
1216.288007
1252.696658
1259.812681
1278.629222
1296.983196
1291.074366
975.5622484
954.1696192
837.5998516
846.2307464
794.5455579
804.5668575
792.3177408
812.9428158
823.6497905
821.1550912
828.9749641
824.4845497
887.6639311
988.3685229
957.9591941
1042.541225
1041.286182
1034.320407
999.7456151
991.8860875
989.7502308
919.1775694
939.120137
906.965533
881.9025744
894.0586748
811.5184665
824.8122439
819.4878004
827.7201828
822.2291023
810.8406099
809.317483
806.4854039
815.1746139
809.13797
871.488852
876.1044828
937.113039
917.5751439
909.3720007
905.0215338
898.5820993
894.8552748
894.7921454
890.058063
875.7064026
841.7843478
825.3017156
830.8170696
823.7967907
831.5628345
818.9324181
818.4720481
805.6566672
815.5008743
814.3513621
813.5279108
904.7524173
905.7410181
1107.032286
1192.079489
1209.399524
1225.006758
1224.840558
1230.834805
1200.777691
1244.970029
1248.019853
1248.857796
1253.148119
1237.451708
992.2848436
1029.131936
920.0718375
892.8884707
833.5217302
833.3964535
821.3678725
819.6946442
817.5025527
816.279921
908.335466
905.0541703
1124.189972
1212.07137
1230.504153
1248.540302
1241.922587
1231.191848
1194.912232
1240.345628
1250.996711
1249.335928
1243.851428
1237.274041
1009.478089
1026.04725
920.6345508
888.6235861
823.5035751
825.6863415
812.8125338
818.7161465
819.3290937
818.3038616
907.5039333
904.9788285
1125.086812
1229.717412
1255.267094
1278.246102
1281.205653
1274.249236
1228.890241
1268.70067
1271.281814
1270.686807
1281.634844
1285.291002
1030.825515
1041.547235
932.8871428
897.7773713
827.3899416
827.5557461
814.3183112
813.4341037
813.7039184
813.1387005
900.9488684
897.4244229
1118.958451
1245.407529
1263.422122
1282.509257
1283.518932
1272.559487
1220.691826
1248.134215
1250.369983
1255.266437
1264.488985
1275.806543
1019.275824
1025.256065
917.9710792
891.8294218
828.4820331
828.3113019
814.6025676
813.4162425
813.0858752
812.3858998
904.6178624
901.888233
1122.62424
1242.328509
1257.03184
1273.698599
1275.357344
1275.431559
1230.892384
1255.558808
1255.220487
1260.918608
1272.670079
1285.068353
1028.951901
1039.58809
930.6877816
895.1752022
827.0760297
826.4869512
811.4093827
810.005221
809.6190384
808.1816714
816.7227741
813.0901941
876.0796129
1001.450115
1009.800732
1103.305758
1100.010311
1098.451207
1059.78622
1049.100989
1047.310025
968.4194725
979.1705773
949.1757012
916.4334198
920.6959178
835.2949946
840.581052
828.696767
828.0927242
813.8396473
802.096728
801.0582358
798.6228147
807.1305366
803.0244202
865.868955
872.8438297
930.339371
907.6313274
906.9912346
899.7002849
893.6899258
884.2977538
883.9736198
891.3559488
878.4905451
836.6645622
817.6200695
828.7573584
824.0462559
831.6637141
819.8512157
820.4984184
807.0895347
817.0795057
816.1293059
815.212472
903.8924292
899.3084127
1118.609988
1237.952085
1257.05937
1278.75425
1276.901076
1270.244515
1227.631063
1268.920405
1286.837526
1293.098921
1306.221404
1319.796652
1061.698929
1058.165766
933.5384466
896.4131357
828.4197021
829.2149507
816.1221379
816.8505512
817.208781
816.453414
907.9127742
901.8396485
1119.436298
1243.993129
1287.704605
1323.687491
1312.397724
1297.120311
1257.300555
1289.172994
1283.400629
1285.364392
1294.113248
1301.889387
1040.977035
1047.881836
934.1962384
894.4698557
826.3770467
826.0561179
811.6095446
810.6187247
807.9323401
806.3492332
896.2560989
894.0123427
1115.381595
1244.119705
1266.923458
1294.779447
1298.069838
1284.700441
1240.826029
1271.821071
1275.961399
1283.417865
1291.670625
1308.236686
1053.977608
1057.350022
931.5716702
893.8878536
825.7566939
824.5205148
810.2633447
810.4452738
810.0534278
809.6505926
900.6126006
897.5712206
1115.339999
1240.764718
1283.97368
1319.233115
1329.168924
1326.667815
1261.5257
1287.729742
1287.199886
1287.545848
1302.018217
1316.683823
1060.055725
1054.613808
928.3882894
891.0926087
823.0481117
824.3242463
812.7720245
813.0181003
813.07706
813.0830232
905.2207318
900.7024556
1117.924159
1242.591363
1284.200153
1318.573146
1329.610269
1333.44809
1293.46702
1327.250232
1318.485161
1323.700118
1334.003213
1333.658861
1062.215102
1053.381683
928.450386
890.2999693
820.8347471
820.1140402
806.0837235
803.248181
801.4445578
800.9022332
810.8976428
806.951691
869.330743
994.4717666
1009.063032
1119.543051
1108.620009
1098.627126
1058.779604
1052.280104
1046.541229
971.9842685
979.2489349
941.6238887
913.9629926
918.7911948
828.9031709
831.185334
818.8443881
819.2942402
806.1368389
796.2349731
797.6706431
797.2660223
804.753713
796.1050901
857.6936962
869.8242517
927.9685686
904.6423063
902.4678188
901.417742
894.5738895
887.1529049
894.5716701
895.1688698
875.0551472
836.4816139
816.5864959
822.1675294
814.8252592
821.8786067
808.6717757
807.6561635
794.7300807
806.2564386
806.2741174
805.4315022
894.8746594
890.642052
1109.660031
1238.507201
1255.525502
1268.565096
1270.230206
1257.011202
1214.129642
1253.290231
1267.751446
1266.556111
1277.675534
1289.863806
1034.541334
1044.455283
935.3430107
899.3688316
830.1066286
829.6711263
816.2546748
815.2971119
814.4904996
813.5021124
906.2302517
902.2787379
1119.492261
1243.964047
1287.357019
1323.399501
1332.16025
1316.543943
1272.428612
1300.762743
1292.103467
1294.641334
1307.967981
1315.060904
1059.147905
1056.979671
931.8826046
895.684192
827.7304196
827.19479
813.626599
811.8896727
809.6822652
809.021125
899.1926331
897.0203406
1115.975208
1242.512599
1286.43433
1322.723921
1322.037981
1309.130233
1260.24717
1292.861701
1293.268527
1296.774067
1310.730458
1318.770324
1059.090992
1054.972158
929.3350573
891.3447082
823.1148589
822.9798644
808.8346538
806.8851969
805.5836881
803.208337
891.5222955
890.3001458
1111.755242
1242.959174
1276.933839
1297.725674
1294.131514
1281.285161
1223.46129
1249.255482
1257.056528
1264.527663
1275.143882
1285.648032
1029.71594
1040.080816
929.9942778
890.6760949
820.8156261
819.7338338
805.8345184
805.3905806
803.9906258
802.5087583
897.1368129
894.773138
1114.573983
1230.16228
1241.328348
1260.288708
1259.110879
1255.414564
1214.285145
1242.882605
1232.439886
1240.862461
1256.649971
1268.407956
1013.865999
1030.427031
917.9437017
881.0031129
813.9006404
818.5646348
807.8779152
819.1035631
811.9960538
820.9128868
829.3829844
825.2928103
887.4472567
1009.152633
1011.876953
1104.957062
1098.882374
1091.784921
1050.453577
1037.896064
1040.681112
972.9381979
987.054218
947.3373782
918.1063045
919.8209455
835.1053923
838.2763051
830.9787308
834.2829891
821.5323088
809.5864402
809.4062423
808.2785763
817.2938795
814.0111675
875.6732227
883.4777482
958.554862
943.1811889
944.338022
943.755383
947.3717863
925.7687802
912.7064679
910.3490829
888.9240799
852.5666226
828.6831023
833.4637477
820.2656377
830.3497818
822.2377005
817.5248691
808.7764821
821.1768685
820.6754176
820.422592
909.8225571
907.3679118
1124.055192
1247.42082
1283.934565
1315.743836
1315.105128
1307.929633
1264.383369
1298.126648
1298.398901
1294.265691
1298.758865
1303.424746
1042.226079
1042.337391
922.6359074
892.0712727
825.1899642
823.3925574
809.1769946
796.3380844
799.4043131
808.2175211
897.9057218
892.6048492
1109.530929
1227.668036
1257.474969
1278.830788
1285.067787
1267.999272
1226.584724
1253.513467
1252.349827
1260.41125
1265.041851
1273.737121
1015.79803
1025.25868
924.4900169
900.743138
832.4936975
830.2430709
818.5602303
821.1661628
821.75304
820.265791
910.2367333
909.5257297
1123.826993
1235.999933
1251.352602
1276.106463
1277.36975
1266.435737
1206.780516
1228.743469
1229.650691
1230.239343
1237.081962
1238.295239
983.2007241
1003.894158
889.4289035
872.8195004
815.4179999
816.7391241
809.637175
814.2410468
811.9995369
809.6411273
908.8619874
909.2363549
1112.552516
1190.021476
1206.633776
1223.921271
1235.217412
1241.799914
1213.862712
1258.281101
1263.020742
1263.958823
1269.259659
1266.948303
952.9923159
960.5892265
876.835516
863.3976596
801.8689018
812.3160196
803.8370779
803.1590819
802.7785989
811.6845672
902.4428862
891.4508941
1088.106173
1173.355215
1190.932327
1231.390829
1246.313675
1256.168861
1222.205718
1264.071105
1283.076416
1296.115974
1301.530764
1298.53338
975.6151799
960.9285144
822.1379608
823.4232331
776.5454845
792.3233019
795.8570024
809.9833892
819.9928128
816.2203814
819.8639375
812.6352451
875.6118031
1000.666342
1003.294382
1093.350771
1085.064575
1083.076955
1053.468191
1048.003475
1048.667689
971.5868012
979.4205029
945.46472
920.2566784
927.6971828
831.4221264
839.0709291
827.0984306
826.7114744
813.4129
801.4995384
800.5853903
799.3628151
808.2521626
804.5514691
868.3553982
871.1838492
937.3779812
914.8521271
908.5274781
903.1036022
900.0485389
890.3695832
893.4870572
901.8606475
882.664772
844.8082627
825.4222267
831.8314478
820.1624614
831.4182963
818.4481783
817.458168
804.8772892
816.4440944
817.1108424
817.8145706
908.9383638
906.9495218
1124.668273
1248.502975
1284.491137
1311.139538
1311.815166
1305.621413
1256.738319
1283.738256
1283.11843
1285.096168
1293.472118
1299.302123
1041.994812
1045.216966
930.0647779
898.9772039
832.670774
831.5430696
817.5682473
804.9263477
804.3980178
805.2579042
816.7717664
814.2109662
872.5002422
873.9951977
936.1891911
911.5616531
903.3298695
893.9262823
886.024353
877.6278012
875.8653022
873.189595
847.3349645
811.7742412
792.9363993
797.0415386
782.532103
787.5194454
779.6383126
789.4617951
794.1183456
820.5909101
821.7700246
819.2556379
907.7803277
904.8638048
1124.209443
1246.110127
1275.073144
1295.714507
1292.358876
1287.834438
1242.805207
1273.021702
1273.000687
1274.662315
1282.333518
1288.223431
1029.221301
1030.25105
911.500762
878.3793184
813.4089126
819.1691249
812.7598381
818.9364433
819.4177307
817.8816275
906.8557655
904.4210454
1119.360948
1235.738688
1266.735799
1288.962017
1286.623287
1276.238309
1223.625494
1247.89361
1243.27437
1243.163229
1252.223021
1258.063886
1007.40073
1013.567043
896.0235788
861.5939698
795.7935422
803.0928403
797.9281532
806.9549585
816.8998109
822.5711554
912.5733111
908.9003175
1125.405495
1239.355333
1272.75591
1299.407863
1301.021813
1290.661374
1237.731991
1260.95247
1257.150439
1254.797363
1259.661549
1262.505541
1005.289008
1007.237743
887.4510171
851.522869
784.5305575
789.3831789
783.090864
789.2791875
792.4661757
792.7288642
804.258554
797.7873857
856.100912
973.6679515
977.0647445
1078.208001
1079.707455
1067.539484
1021.973817
995.1607324
989.8472623
910.8243829
917.9562118
875.6923998
835.5032961
829.3988975
755.8041539
785.5146001
788.2601096
798.2161537
793.4977873
790.956869
796.8053436
800.920439
815.1326113
812.2104372
864.5496889
867.3978717
939.5457176
920.9425737
920.2872976
915.6704725
906.7867784
894.3673356
894.504908
895.0443617
871.13479
830.0256415
810.8201299
813.9734096
802.4582565
811.602598
807.5132669
813.0753755
803.8918699
818.162007
817.1246718
815.6607457
904.5737278
906.3238397
1117.999085
1231.377211
1255.45933
1271.108137
1263.124721
1261.300722
1222.631487
1258.088832
1259.202674
1259.986432
1267.150474
1273.954649
1017.049839
1017.589175
898.8723955
868.22252
806.0260557
811.2738453
802.6531269
807.1350972
811.1424488
814.6558002
911.3646505
906.1364056
1107.770616
1219.869933
1245.372658
1260.644003
1254.794533
1244.112371
1190.511163
1224.888533
1232.321496
1236.540865
1246.704129
1245.915368
962.3019262
997.4941016
891.9881725
868.669314
813.569897
815.4062649
797.7686948
795.0032561
793.1298002
792.464119
881.3204516
884.5340446
1103.117444
1231.028808
1258.510675
1274.510012
1267.372661
1246.038379
1193.018413
1240.979632
1256.26299
1258.088971
1262.41426
1250.874127
979.9532245
1016.821157
906.3384245
877.2144968
818.5502226
825.8210747
818.80202
817.5330393
815.3905646
813.8258339
902.7765349
905.4409602
1115.054654
1225.913647
1251.750143
1272.792218
1267.469175
1260.186577
1215.507865
1242.067053
1236.66041
1243.190616
1263.900101
1274.686268
1020.891304
1028.144253
915.6659012
889.1399977
830.4743333
832.5489094
818.76311
817.8280763
816.5717993
814.911935
906.2075332
907.9933633
1121.708601
1231.150035
1253.674137
1271.756465
1264.622701
1255.699208
1201.437319
1229.662226
1234.940452
1239.397557
1246.508335
1246.280125
980.111412
1011.777026
900.7961536
875.6682056
821.0434815
827.371151
817.5251799
819.7690222
820.687922
820.1986742
830.0220536
826.6866974
879.7324222
995.8250501
995.0369008
1089.709755
1085.544403
1071.986154
1027.716605
1010.764134
1004.226691
935.1856172
952.3397441
921.9144736
894.7825944
900.8727975
809.4311269
820.1946263
817.3392113
823.4051575
814.8256228
808.0430858
807.5068086
803.6895096
811.1587654
805.4598294
853.6015334
854.2432314
923.7830906
904.9484868
902.3991167
896.9094511
894.2514802
884.1300243
884.6350962
883.7778809
863.7961786
823.5915602
803.2641577
806.8163367
790.8823169
794.1046838
785.3137909
790.0192668
781.5898972
796.6824628
795.7353499
793.3024667
881.4727463
880.9572697
1092.76539
1214.183275
1252.316429
1281.682343
1285.903029
1280.021776
1230.65895
1256.963051
1251.772276
1247.431015
1248.163874
1249.385431
1010.816516
1024.597927
908.3607749
873.7105872
808.2184989
816.9383351
813.3559241
820.2742442
821.2384875
820.206291
912.7725714
912.6311313
1125.178697
1248.100946
1289.739427
1325.018125
1333.149976
1322.913471
1266.599707
1287.102541
1286.359937
1290.326233
1300.075583
1305.609999
1042.742125
1043.383928
926.2342862
893.9971168
830.0174575
830.2662007
817.3599876
817.128045
817.0540562
817.0413086
907.4202691
908.9347145
1124.132488
1249.655756
1287.803074
1307.758227
1302.978651
1296.178067
1250.349546
1278.238978
1276.686189
1278.83424
1286.151759
1291.611384
1030.899231
1032.359036
916.6583863
889.185657
830.0620735
832.4974898
819.4123999
819.1636939
818.7888897
818.1062069
907.7171258
909.8473809
1125.665214
1243.089721
1272.516328
1290.063771
1285.865874
1278.317934
1229.273048
1255.5945
1254.270727
1257.293999
1265.407188
1275.189473
1024.953366
1032.714651
916.8590825
885.5990744
823.8736381
829.4919456
814.8867613
812.3528773
810.9092731
811.0433742
904.7884642
906.5700467
1117.587987
1236.427645
1273.294528
1302.853713
1306.553688
1301.90745
1252.385886
1278.809529
1278.374839
1281.271774
1290.107711
1296.166009
1033.480913
1036.394993
920.4507288
890.40471
828.4001988
828.1361193
814.3142783
813.1997425
811.5918024
809.5667806
817.4986048
817.2590566
877.9364448
1001.694314
998.5026482
1088.679667
1077.989271
1062.386655
1021.932955
1007.503933
1001.643834
931.0099243
947.9392591
910.8662156
883.6875232
891.0449695
799.1046892
808.5523804
806.5899368
814.4931407
806.2446962
800.3314499
801.629546
801.1273779
811.0140622
807.9271959
863.0777231
866.9684419
933.9335533
912.4663267
908.413894
898.719148
892.6228364
880.9605941
881.4533741
882.502177
858.7135915
814.6966929
795.9877187
800.0086904
789.2396763
801.8854641
802.2194697
809.2393491
800.71548
816.4184513
821.5619241
820.4730527
908.8700158
909.3767278
1124.008638
1249.148409
1272.018721
1283.79151
1273.748338
1263.582754
1215.845911
1242.384964
1234.960094
1239.070235
1256.874132
1269.093527
1019.623899
1030.393149
918.8308134
894.2694305
833.4554857
832.4544601
819.3841413
819.1843244
818.8327884
818.1424784
910.4529693
911.9588889
1119.838201
1232.212633
1254.533508
1269.546782
1260.852722
1252.013148
1195.747671
1225.149059
1227.55768
1231.834867
1238.265032
1238.045832
1007.777436
1033.852414
922.2171202
893.5864198
832.6544673
833.9232689
819.7138557
818.1096096
816.809066
816.3136747
906.4954797
909.534184
1113.050149
1220.576391
1245.947005
1263.3661
1258.816445
1245.998068
1192.925334
1233.330306
1242.182487
1249.458818
1244.894958
1242.329018
1014.775613
1035.653972
922.2949263
893.8522645
832.5403804
834.5555681
821.6801794
821.5306862
821.4736556
821.4503928
911.8272237
903.6011412
1101.814087
1213.423756
1236.46414
1253.916159
1247.751499
1234.171917
1198.218305
1235.582959
1240.013793
1242.070973
1241.131764
1239.144631
995.244286
1007.145953
889.7223382
863.1593392
805.8190911
815.3055727
809.4910221
815.9553697
817.1115626
816.5068452
909.3178714
904.2967105
1110.130486
1225.754872
1260.607258
1289.443532
1292.116816
1286.18433
1240.397535
1268.433021
1267.39139
1268.979754
1277.082717
1284.649987
1030.157437
1036.854059
920.9090695
889.4385683
827.1996361
831.1804954
819.3135634
821.2094303
821.6414571
821.4848605
831.6300445
827.8927487
876.4729351
991.770237
984.775946
1073.919393
1065.597851
1057.82865
1017.104398
1007.249236
1006.805914
934.4031253
945.1911799
899.1978938
869.6361139
883.7353945
790.2972422
796.4460299
789.7139344
796.5005969
790.2023048
785.0694269
787.4985426
789.1412938
801.2331474
795.4742053
850.0756083
846.9235852
917.2577596
899.3330514
898.4821154
895.3416404
890.058661
880.7551819
881.5770296
882.4450592
858.4497895
812.9095712
791.1531793
791.9316281
778.8707936
792.1617736
790.309858
790.1422514
774.6649285
782.7799165
782.9769544
783.6359586
875.2399487
876.9295731
1094.158195
1213.630065
1249.255901
1271.811651
1271.302701
1268.083515
1222.446788
1252.413821
1248.649696
1245.188714
1247.002748
1244.648029
993.7691535
1000.866696
884.6316873
852.6375583
785.6575676
789.1680801
779.3106425
773.1257442
767.5543751
769.3019974
870.0403258
872.9145717
1084.795984
1198.760969
1235.326755
1260.864796
1260.396649
1254.102768
1201.020482
1225.971428
1223.251966
1226.314433
1234.947362
1235.265449
968.4419316
991.7143784
881.5823063
845.5486664
783.0959127
789.8972207
779.2466529
786.2524354
799.5858425
803.7448584
896.7207537
882.0331849
1099.579346
1192.185204
1202.917568
1223.093728
1238.176234
1245.058999
1210.510089
1254.46106
1261.210116
1264.734768
1271.634397
1269.133923
955.8724383
952.2589386
874.4513119
849.125208
782.2290028
789.4667287
793.8515828
788.2921231
783.252607
784.0969064
882.323793
883.7375733
1090.69407
1173.271494
1190.444795
1231.988002
1253.590643
1264.685645
1227.213773
1263.875782
1269.061315
1274.629908
1284.93176
1282.653035
964.5108383
951.8833161
872.4165738
848.8443744
784.7354415
792.1985986
787.6143536
784.6192174
782.0519283
791.5515207
889.2708122
888.9428911
1113.697612
1214.072633
1225.658948
1241.110642
1233.641872
1240.425749
1210.747795
1254.881697
1256.513698
1257.200982
1260.812599
1248.331042
970.4370181
1002.387138
898.2071183
863.5528916
796.7654975
801.7820361
805.7048423
794.8686413
796.6022273
799.036547
810.2464665
806.4729247
871.5043046
974.1986871
979.6739519
1072.243228
1072.891155
1077.125424
1035.83115
1020.940821
1025.978597
955.7656398
966.5034475
930.5041053
905.170224
904.0903223
811.1016129
812.7577233
802.4638399
806.4542503
783.5154785
783.5181209
797.4654403
798.7010822
815.3265823
820.5272361
878.1925224
854.813234
915.8198425
896.4019228
894.3612055
886.9560357
883.6694075
876.6605744
879.3569813
881.8214699
859.8203394
827.1299735
804.4700569
808.865793
786.7773971
786.487877
783.1042518
786.2776699
786.5070117
802.8708773
802.4355645
811.7718054
911.6055418
912.872514
1128.827541
1225.300499
1247.033133
1267.382388
1262.05322
1257.076349
1211.975145
1239.664395
1233.68841
1229.545445
1246.348199
1259.859412
1006.187072
1022.625561
912.9156581
874.7287585
812.8999202
829.9095353
814.3376542
815.9077433
820.311793
820.013235
913.4191317
909.1566887
1129.97965
1240.764244
1257.415936
1270.252648
1260.73027
1251.991278
1194.328531
1225.41906
1227.910297
1227.771137
1232.896654
1231.856752
976.1647993
997.3306458
892.4025926
861.6530281
804.9361102
808.9643087
816.8986573
810.7072544
816.2864773
814.5679008
908.8602852
907.5232754
1112.735346
1188.427891
1199.833268
1224.123815
1239.014177
1248.964544
1216.539516
1252.950924
1256.170979
1261.690305
1268.013199
1264.967896
953.404101
969.2022771
885.8223077
866.50762
810.9841632
818.243007
813.3294942
820.8955109
821.2090948
817.8781193
908.0139108
911.2464058
1132.511058
1227.874884
1241.016209
1268.626983
1259.083064
1239.272501
1195.494991
1235.864894
1241.796528
1248.906668
1252.345807
1245.138397
970.0701565
995.0916958
895.415967
864.6795874
801.0042559
802.7355455
814.447759
805.8403201
816.9087919
813.1052389
907.1504808
915.8259916
1130.377543
1229.05865
1260.755035
1270.49954
1265.479184
1255.514829
1196.027181
1231.764415
1238.098826
1241.168129
1250.799259
1251.838847
962.6446753
991.2993073
897.6544453
862.1792443
796.0379677
798.1881169
803.3873999
794.9938242
793.4826494
805.8080818
825.653369
827.4712672
875.9734892
977.3214172
969.2017799
1061.847083
1060.588417
1059.199668
1021.96505
1009.925282
1007.47221
933.9029518
948.0671278
912.2428031
891.4425489
898.1383333
811.7426983
808.484662
800.2701574
803.9816328
801.1444905
782.4227214
779.0336482
779.8879927
795.3787444
796.3332421
861.5516098
858.2818635
926.1642553
905.304471
902.3608825
897.5616995
894.4968123
886.6899007
885.7413636
886.0599983
862.9646944
819.2021194
792.888187
793.6604524
785.5385183
789.1097882
785.0321901
791.2871468
794.7929324
800.4070336
799.5932019
807.3130576
894.3264952
897.8956365
1107.342426
1215.253874
1258.307566
1290.012478
1290.086161
1282.52186
1230.222993
1263.227256
1264.315899
1263.637202
1272.389531
1276.212481
1023.397361
1031.322368
911.3909317
869.6612704
802.2129951
806.0974675
800.6215222
796.8340784
794.4991125
794.7726563
898.2657798
902.6957077
1118.344177
1231.030853
1265.230852
1296.253841
1295.98572
1284.929815
1233.849692
1260.084827
1257.184917
1253.419399
1263.473512
1270.463958
1017.473468
1028.040322
911.9122977
870.6034281
804.5140322
812.4057843
815.9013159
804.8312811
799.1616674
800.4844249
890.5465826
892.21325
1109.731609
1224.416108
1259.623576
1282.120204
1279.245857
1274.112489
1222.631201
1254.558054
1249.79096
1248.31569
1265.366801
1273.033344
1017.143473
1022.901749
903.5008142
864.7940426
800.5814895
803.5213998
798.72332
791.3337667
794.7921295
796.8861567
886.6800427
882.5153096
1102.531713
1219.587235
1254.686099
1287.544351
1288.542613
1286.130753
1237.007952
1260.15578
1254.102764
1252.725096
1261.279318
1266.140692
1008.216552
1020.387901
907.6373725
869.4287712
802.5657371
811.8494907
803.5300283
802.0930257
805.9199059
818.8574426
911.3533018
909.898742
1130.971036
1215.947079
1237.06659
1254.063974
1254.689756
1252.411688
1208.083248
1240.971087
1238.647162
1235.96991
1242.948542
1239.798686
967.5221413
975.5034637
856.3500757
813.3593702
772.1456884
773.0191555
752.0559293
762.5280083
767.8472582
775.5114122
794.80211
800.1695422
867.0818578
962.271153
957.5170975
1057.995211
1062.87968
1063.627731
1031.688017
1020.380087
1013.938605
936.8323292
950.839063
918.499498
887.0506858
888.6428985
789.2577874
792.4081678
788.8741644
791.8289957
788.9064587
780.1174203
779.8657863
782.6614908
786.5495541
787.6110014
862.9010453
849.1479798
911.1763298
888.3951271
886.1597637
891.8131395
892.9810813
886.5582092
887.7965014
889.6517785
869.1465198
827.0319666
801.4645158
812.7364546
796.303554
798.5730502
791.3807379
792.3888316
779.8837819
791.0610551
793.9436388
795.6072334
891.0700795
898.9522878
1117.004529
1226.603762
1257.968437
1285.098889
1291.623771
1292.953944
1251.092646
1260.36001
1252.921804
1253.804085
1263.634995
1271.140238
1021.536854
1030.443878
915.033963
871.9557683
816.3966758
822.2717147
809.5734252
819.0076101
822.0664392
820.1561103
912.7537622
912.0463677
1132.769959
1233.397733
1266.661354
1288.331867
1278.921203
1266.099739
1217.842063
1244.748181
1235.056019
1232.845433
1245.813335
1263.198533
1018.763864
1024.857599
907.8906192
873.2193465
807.4740481
813.2648082
803.2290416
806.4276079
819.5246428
823.1498842
907.0606678
911.2100384
1136.14861
1235.769584
1251.979346
1263.782117
1260.17558
1261.942201
1215.871193
1238.240618
1228.699242
1230.409719
1238.671513
1236.010422
1000.909455
1024.181506
900.636349
858.2045071
794.562453
797.6631166
795.1605401
787.1632982
786.5821367
788.8034712
892.2268667
895.867644
1114.543799
1217.006508
1240.81103
1260.181384
1261.097425
1251.27204
1194.683235
1226.297755
1230.693871
1236.551103
1251.817516
1250.457186
957.3957468
989.8371436
884.5961884
850.1947401
791.6031049
795.9351542
782.8575726
779.7059962
781.1323277
782.851031
875.6382585
880.3889225
1102.57616
1215.159012
1256.539018
1290.398189
1285.5326
1274.364054
1220.82065
1248.652192
1240.056167
1229.128384
1237.229267
1260.924734
1013.562558
1029.615263
909.8990353
862.9494214
790.8442255
793.6290332
786.4722544
788.1000535
793.8050387
796.4883153
808.163406
809.132278
872.1635111
984.5429064
989.8843744
1091.754309
1093.776028
1083.566982
1043.920919
1030.000939
1027.607152
951.582488
959.3015227
922.1500132
892.6977588
902.6486308
812.287394
813.3245716
802.8419731
806.7880853
801.5686789
797.19169
806.2641455
809.8316506
820.5447319
820.1861438
884.2135442
882.746733
949.4176126
928.4808826
930.564498
925.567405
914.5414073
900.372258
896.7322873
895.5754735
877.7189834
834.1061403
814.1397262
831.7422998
819.2545979
829.8199824
820.112314
821.1078528
810.0955767
821.2548022
818.7530814
819.5674947
911.62021
909.3496795
1126.801536
1243.482694
1265.046242
1275.30202
1271.555426
1262.892566
1215.540689
1245.936993
1241.448879
1242.614704
1258.690438
1271.554632
1024.300863
1043.59061
926.2489115
894.3570998
831.7796975
833.714344
820.9756272
821.2759374
819.9927127
819.6563164
911.6277527
912.0856729
1134.489542
1248.177764
1270.590639
1281.128345
1276.65851
1278.839805
1244.350598
1285.940902
1294.763786
1297.252057
1306.494244
1302.017062
1034.448655
1043.068875
919.6118561
881.4027376
818.9177567
823.6959176
809.0458847
806.9413428
807.0112684
809.2815766
899.0779702
893.0385524
1112.172353
1216.635322
1241.629825
1241.108689
1228.09249
1230.798879
1190.711079
1220.098145
1222.199096
1224.811455
1236.29962
1243.42631
999.1933608
1023.975041
907.5365896
877.5909248
813.3588494
817.3059777
807.928371
808.0407008
817.0686475
821.5915863
911.0913101
911.6984539
1136.845991
1233.65222
1235.954863
1244.994476
1234.363495
1237.584548
1203.917401
1246.186762
1247.486339
1240.366766
1238.700998
1232.196463
984.8111511
1023.645139
905.5245532
864.8213311
798.2015636
802.9951368
796.3000867
775.810329
773.5185003
783.9180635
885.9600364
888.7113932
1105.370126
1213.347592
1245.976062
1269.473162
1271.178165
1262.314598
1215.901223
1250.602832
1257.354676
1262.44878
1269.781413
1276.380801
1024.374306
1034.919901
911.0888741
873.8967741
808.6696259
814.9239673
798.2589787
801.8590166
811.7964803
815.6736442
821.3415669
827.9296608
892.3912489
994.1332617
993.7655776
1082.128432
1079.897847
1077.858142
1044.734026
1031.059701
1027.99469
952.0287878
959.7914345
923.7340481
889.1116346
894.4633361
787.4653355
785.1547239
772.5495747
774.4923365
763.3572917
752.1183186
754.40405
751.5469188
759.4889445
762.282675
834.3571626
828.3481187
892.2229856
874.9672978
873.3503733
878.0612013
881.2408357
875.1239873
873.7548861
875.2331055
853.2758338
805.5799592
774.9132212
789.0993296
768.5084817
779.4497393
780.2156776
789.8851169
775.4815244
780.7300571
784.4968257
788.8787284
812.7403103
816.3860215
876.8336686
853.1092783
895.653931
867.0775974
871.1361331
873.0240722
865.519823
853.58585
855.1598163
855.4555801
826.1236648
779.2625934
766.847009
787.3598188
779.9832474
782.2701165
781.6021327
786.8825198
773.7799895
792.594076
801.1704986
797.8836803
904.2127395
905.961741
1138.337215
1239.547531
1251.236976
1259.945903
1256.683673
1251.194973
1198.31161
1229.895936
1228.140326
1222.752934
1227.773109
1227.056098
987.6421364
1018.251014
900.6523933
868.8177927
803.4623437
812.2375125
807.3988879
808.5747137
815.7630826
821.9890619
912.8813505
912.0707229
1136.374259
1247.840949
1260.023651
1274.084914
1265.746628
1266.329666
1215.14743
1239.583583
1245.919437
1256.739091
1273.834346
1293.355038
1046.282736
1063.602416
928.0981342
886.2366859
830.5302761
835.4968474
822.305878
820.4599927
817.6427189
815.9551663
905.6832581
908.6386704
1137.635926
1251.624362
1287.10922
1300.617505
1284.567983
1265.502467
1211.721379
1250.624675
1263.772992
1267.938496
1280.545959
1282.813396
1014.453093
1021.936116
894.000312
854.5821914
793.062927
795.1236608
788.1487465
791.6588993
786.2281762
775.431307
864.8667366
870.0432439
1091.736215
1195.049171
1222.354013
1248.448432
1240.380063
1237.281789
1200.757568
1238.690008
1243.49709
1255.480582
1271.862572
1278.152241
971.9337769
961.6949918
835.992091
817.8659381
758.4863738
765.9265871
768.4378095
774.1971588
768.9616818
766.6257964
785.3219222
785.3298297
868.3753978
960.938892
954.2256858
1056.808157
1058.245396
1051.192896
1007.298199
989.3890262
989.8230862
916.1172786
937.2042686
905.7084027
885.2709079
900.371961
797.0097287
797.1344833
790.2163276
796.778778
789.4583737
780.2259894
782.7559662
781.0189688
789.6504756
789.6659546
852.6688353
842.6851864
919.1371486
903.9099853
897.7331544
894.3634961
890.9531187
883.2470803
882.0532292
882.0733615
859.5939374
820.8311671
796.5148629
806.0299982
779.9118687
787.6686422
781.626699
775.999016
760.7982896
772.2643426
772.3345202
772.3562427
862.6723849
872.3599052
1101.553633
1210.181539
1241.755991
1272.869698
1269.99984
1266.169969
1222.130385
1251.895065
1250.437565
1253.292999
1262.143011
1267.711094
1015.364521
1031.53827
904.0762075
863.2251689
795.9086324
796.9156754
781.7192649
780.2794254
783.6974075
789.0429907
884.1651839
884.1038678
1113.120218
1216.08104
1253.745707
1279.949203
1270.567596
1259.988878
1210.629256
1231.144668
1226.309281
1231.384053
1239.681727
1236.625492
999.4413567
1030.565917
896.2409145
869.3283864
815.1176866
822.5051337
810.3894636
809.6752076
813.3225624
820.6663413
911.5137286
910.7807179
1137.525243
1224.874983
1251.400889
1268.650119
1269.936867
1264.650938
1215.375067
1236.548789
1228.888565
1230.64569
1238.902964
1260.711901
1022.323789
1048.679747
927.9191735
889.124416
821.3598998
822.2360589
815.412683
817.862574
821.877728
822.0370563
912.350845
913.1359193
1136.732339
1233.938636
1262.354536
1273.109517
1266.324459
1256.938695
1198.273963
1230.184275
1232.314584
1233.830485
1240.965604
1245.43285
1011.970718
1042.936289
925.8806161
900.2327238
830.9031937
825.8127742
809.0454835
818.8819741
819.7641324
816.6819396
914.8721832
914.5752415
1141.513097
1223.87408
1224.473871
1235.204924
1234.901911
1247.221525
1217.823131
1261.206191
1268.665177
1278.896878
1286.408859
1276.667995
956.0129548
958.9336927
854.7136908
829.5982798
753.7421114
766.3640873
764.9957416
773.4945856
778.5369466
783.0126829
791.651513
796.8560888
870.4781336
967.7706111
943.3929073
1025.094122
1031.430303
1038.41718
1013.624372
1014.235682
1016.136371
919.1544916
921.463314
874.752539
856.0307546
911.696041
806.8048983
813.342505
811.592343
814.7183174
805.6949684
803.9611069
805.9913773
809.4200807
820.5748692
818.3568071
885.3897467
883.6891977
932.0040418
903.6889533
898.6794546
888.1639791
887.490317
876.3166184
875.7451096
876.5953807
855.027445
808.7393054
784.158517
808.75405
785.4773464
797.3343263
792.5261395
795.6824612
776.7900727
781.6816696
776.7240216
786.0620845
882.3159927
882.5893169
1107.436867
1211.751191
1245.40768
1265.364022
1261.777328
1251.315589
1205.175891
1255.733255
1259.359183
1259.29919
1268.3216
1278.618766
1025.381238
1044.982345
914.3553779
874.1784855
807.2019679
808.038755
804.1202164
808.2396718
802.1926147
800.1049661
898.4385202
900.9344464
1128.924538
1233.563067
1261.997316
1284.23594
1266.443617
1258.107672
1209.741498
1227.394244
1226.955164
1229.430391
1235.756412
1236.439446
1000.392781
1024.24454
894.7045697
866.2765862
803.1337173
803.3565775
793.9164397
792.3552421
790.4186206
790.9023627
876.0539255
870.2927346
1089.263142
1198.821529
1225.23515
1248.661239
1242.692062
1233.313183
1198.804345
1238.992121
1240.288675
1239.183428
1240.058141
1238.142138
997.222218
1024.742203
895.1990218
857.4361474
789.5239506
793.3608719
782.4087516
782.2074511
782.1453946
782.1213766
869.3915522
864.3326317
1090.251239
1195.899977
1225.137908
1252.649459
1251.994095
1236.940594
1198.997593
1243.783615
1254.074802
1253.245395
1256.043104
1249.724032
965.8669909
1015.680262
884.5965022
839.917481
773.618132
768.2882718
759.3449542
763.7020243
763.2839967
765.4905717
868.1400239
872.3465461
1090.740611
1203.070909
1236.933864
1258.651992
1255.191503
1239.893887
1195.532133
1230.494083
1234.594184
1236.604884
1240.873032
1238.833357
985.6079077
1020.807983
890.0321229
849.1540054
778.5950759
778.9192316
764.1600822
763.0938436
763.1215507
763.1277438
773.1503167
770.7804809
837.2725457
942.5143802
947.2681958
1043.197939
1031.506611
1028.943596
1004.420612
1010.534299
1012.176191
931.1596614
938.7869303
891.8271439
842.0726553
850.5778954
735.406653
732.3595927
721.1904037
734.740183
733.4675605
725.5501497
723.934412
730.1445148
748.1780991
757.8530611
839.35959
810.4855559
869.533934
849.1255328
857.4081405
860.8903175
860.702547
855.2055133
856.9357249
855.5039657
828.1034977
780.4736455
748.4732501
755.1215913
721.9352597
719.8567143
715.6440505
730.4007037
731.0687679
747.5544917
745.6189774
745.1499065
837.6794147
838.6646217
1067.389099
1175.278316
1214.248312
1243.861887
1247.01574
1236.557329
1187.763421
1226.09914
1242.31815
1245.576234
1251.456792
1243.919487
969.7265974
1016.63981
889.9518275
854.7825986
792.5738245
798.7335023
787.6069905
787.2912426
787.3499757
787.1956921
880.2007762
876.1612449
1101.750779
1212.841801
1256.096379
1281.102786
1266.441408
1256.105925
1208.509421
1235.927205
1231.115749
1227.34563
1235.695461
1243.995124
1007.553741
1028.566829
897.006109
852.802529
786.5045939
789.2583171
773.4644407
774.9262577
776.6373141
780.7345878
868.8181998
867.1676924
1096.085708
1200.372628
1237.275093
1262.564427
1263.778184
1255.896348
1199.026387
1225.150181
1228.043451
1229.502662
1235.322366
1234.724722
988.2787787
1013.568524
878.8368792
839.149766
773.7042086
775.8015834
757.72857
755.1129525
755.4604311
755.5339313
851.3280351
854.7962349
1082.819081
1190.503237
1228.248004
1249.433742
1247.204661
1241.134355
1192.770512
1228.343081
1231.573612
1235.203492
1239.829582
1239.287669
974.3030652
1003.147796
871.5246448
831.7567588
760.3624303
759.4408148
747.2004332
747.3106812
753.2131439
759.3737102
853.8507971
853.6053874
1082.823094
1189.92301
1221.71981
1245.598615
1238.159636
1238.273522
1201.298615
1236.266517
1238.017818
1247.579571
1257.280328
1245.749356
989.3433469
1022.52829
883.0549735
843.6910426
777.9733825
782.8448728
772.4253405
772.0355375
779.1385128
796.9270931
811.9057133
806.7724046
886.1523155
981.221071
964.0712208
1054.232837
1049.796314
1033.1591
998.6848161
993.6051713
992.3825356
920.2631418
958.2509371
921.9504799
898.5790186
915.0443428
804.5119784
809.2530446
795.9602529
788.2553501
778.7583695
776.0153904
779.7500879
779.9017633
789.923238
792.8452331
874.2736599
860.9746014
934.8133788
926.1856498
933.9030411
927.5816401
926.4630218
920.7907442
916.7050875
918.3782646
896.5737081
851.9740351
838.7452668
841.2526572
802.0551968
800.4846195
790.9670967
792.2601223
779.860229
786.1563452
784.2663681
784.4886454
875.0099739
875.9835901
1104.813033
1203.94626
1231.972112
1256.037125
1269.243414
1291.980458
1246.767202
1273.916471
1280.272669
1282.050174
1292.981272
1299.039212
1043.605693
1057.55836
930.2825022
888.9115553
824.2859762
831.0669745
820.5111382
820.7857832
816.2071448
820.7792975
912.9150035
913.2676261
1140.750165
1248.01927
1275.101749
1301.42311
1303.270765
1297.734577
1245.684133
1275.61589
1277.580248
1276.578067
1290.931459
1300.432457
1044.711197
1058.678452
927.0064356
889.5803363
824.3090573
830.6473172
821.3097998
821.3370841
820.6532971
817.5486001
904.229309
903.2294043
1131.306806
1243.165239
1287.140034
1303.344347
1299.400811
1287.816438
1235.460564
1254.805143
1248.10557
1250.13313
1267.709108
1279.84538
1030.914448
1045.161049
914.6517729
882.2072362
820.5455484
822.135562
811.9597231
819.8608356
817.3649782
815.4437096
904.5961274
901.9442446
1132.026326
1244.127716
1273.53159
1264.358272
1271.961738
1258.589114
1211.939382
1241.149623
1234.559467
1231.002989
1238.040848
1239.797021
974.1513576
999.9470302
874.8699083
846.5954944
784.3703441
795.7860854
784.4681002
788.5217008
802.630525
811.0666538
902.9523888
904.8634352
1140.734395
1241.356437
1241.432603
1250.624265
1252.523545
1248.054976
1198.36131
1227.844036
1232.590736
1240.520177
1243.752378
1246.340449
987.6588003
1018.868023
891.8817599
864.1411006
795.4421446
802.4444271
793.3249236
793.1435634
779.8803059
787.1141834
824.9115901
826.4845817
890.1181762
980.390338
978.0745522
1069.904002
1068.739251
1064.884475
1026.610558
1012.420544
1003.535322
934.0061663
952.1111447
913.7263871
893.0098597
903.6932804
797.301686
803.2477633
784.5957775
782.1173371
767.0703458
748.2199785
744.454221
744.6580177
762.446088
758.017542
825.2784453
813.3035067
891.5844558
879.3241826
879.5569615
877.0621856
870.998267
864.1411275
874.845821
889.025062
872.0691797
835.330465
827.9721833
838.9175214
812.4957603
812.789209
803.8245159
809.7783883
799.4102087
802.8378852
809.9139442
810.6086555
820.3871811
820.2447628
892.4958558
887.9059492
952.5671226
924.6363495
919.8967078
911.3187566
902.619946
894.0102047
896.9468803
904.4620659
885.3071284
846.4912372
841.9830036
845.7931559
817.2440034
821.4165493
813.1230423
819.4538253
809.2815474
819.0724418
818.6815011
818.0077781
910.0451742
909.0580049
1133.22103
1242.648051
1282.133387
1300.864645
1300.097478
1299.545299
1248.489213
1276.323914
1268.561344
1270.136321
1281.243848
1297.521779
1055.130319
1069.099285
937.7651238
897.6194864
829.7059875
827.3619031
813.2320192
813.5870446
807.5127342
800.9609399
888.7314613
887.2497045
1115.737271
1230.191618
1276.728326
1300.351836
1299.298082
1294.478316
1237.595153
1265.152922
1264.203419
1272.706418
1283.480775
1288.924006
1045.009885
1054.099062
927.5918763
888.1444581
822.07156
826.1708626
807.6709082
813.8827436
817.1557663
820.7553681
907.3351225
910.0928701
1141.753759
1243.920547
1268.525842
1284.739407
1286.923301
1283.502698
1238.49853
1260.908963
1256.380324
1255.637089
1265.558196
1262.737441
1005.203625
1011.135813
880.7909367
842.761749
779.3158391
778.0702685
757.8562895
759.1429296
773.7205497
775.7745945
865.9877082
861.8904883
1083.276882
1187.524268
1226.551174
1262.027726
1263.066874
1260.130376
1216.839474
1252.134748
1254.500507
1268.716444
1268.397357
1268.135785
1022.564747
1034.512272
908.3145407
873.3084308
807.3247993
813.0004062
802.9936058
802.6547055
806.0742776
804.0059353
811.9681545
823.180798
904.7859837
1011.049729
1005.545046
1103.847601
1096.469167
1097.855908
1065.223062
1055.324022
1052.478812
978.6854137
996.6925996
958.16575
934.9582993
945.0158226
834.7413303
835.181273
831.0911952
834.4046942
819.8547462
805.1357193
801.9054173
799.321833
808.7894628
808.573689
880.3875425
876.2400723
956.1137567
939.1518293
938.7947744
935.2904878
921.9588024
905.4299901
903.6560917
906.3149538
887.7304583
853.5295057
849.075774
854.2932225
824.1683367
827.6969298
818.5308523
817.5748186
802.6012496
812.0394704
809.9662919
808.2680447
903.2173702
899.4504928
1115.276399
1222.011438
1258.304414
1292.253918
1295.10129
1283.591597
1244.325397
1274.730389
1266.811563
1270.556374
1276.341629
1279.741681
1038.510054
1045.749519
903.5652157
881.3251233
811.5858223
798.9516051
803.7287137
809.5087719
846.7032862
862.5477967
938.2498457
924.1871071
1144.16258
1256.475722
1267.790872
1297.813392
1311.574895
1298.455801
1253.645689
1280.829194
1256.968238
1261.50157
1278.257592
1284.108971
1047.896384
1053.441747
918.7983783
893.8272854
829.9447674
829.6095591
816.2060581
814.7281863
811.54855
806.3835356
898.0595819
888.9488136
1121.23315
1235.129033
1277.513948
1306.229437
1302.78821
1292.395442
1237.290547
1259.632576
1253.15066
1260.441594
1283.980888
1311.877928
1072.131678
1072.665432
938.2914672
899.2542567
831.2933353
831.4312182
815.1030917
811.1457239
808.7049405
805.8499321
892.7296746
890.6419937
1122.637638
1241.880922
1281.462794
1294.295589
1281.12079
1275.437728
1233.111857
1242.645189
1233.365221
1228.705135
1240.815533
1246.311557
1021.579129
1028.537597
882.1408621
855.560332
801.7724588
804.422748
799.9691248
801.4614166
809.6169908
816.7080098
901.156937
901.0785244
1130.564791
1247.039907
1269.15283
1276.742737
1267.87214
1275.235406
1240.977746
1256.972618
1246.380163
1234.137141
1252.553352
1273.414656
1017.001496
1027.861085
894.1970166
854.1105587
792.0764918
797.0461192
797.9631645
797.7389651
815.3542104
811.9509099
818.2915259
825.7517861
897.2957373
1005.681203
989.4860502
1076.440028
1067.156661
1052.179854
1000.816558
990.0936343
990.0391984
917.5468771
942.4753923
916.3532902
910.1330372
925.3000721
830.1928311
841.3303568
830.0949658
829.0279782
815.3729754
801.7343245
798.6045715
797.2427568
805.4906687
802.4815424
872.8612689
870.9606675
952.5061729
949.6032244
960.0337193
955.6310814
946.3603614
931.4204563
925.6151265
928.1799385
909.2873402
873.3804463
865.5335635
861.0464458
827.7564973
826.2910747
815.3053133
816.1638326
801.6077341
810.4472472
808.8495946
804.1804312
894.1158589
900.5803461
1131.940375
1246.258346
1286.189427
1322.429595
1327.022277
1317.528513
1263.969448
1294.650839
1285.486094
1288.399371
1297.147164
1301.735853
1059.336504
1056.688409
923.9322347
886.7141589
818.8564001
820.1209733
807.6898899
802.8619119
800.5092585
800.7247942
893.8096583
894.2846566
1117.737689
1225.101625
1248.079363
1276.95644
1277.877385
1273.742874
1235.88715
1266.182639
1263.007982
1266.259048
1266.155206
1269.672693
1027.593367
1039.216831
915.5011193
877.0561296
819.7848077
822.33379
804.0464288
819.8269108
820.1661267
820.7252483
910.9531846
909.7325569
1137.54829
1255.698035
1288.280965
1310.972756
1304.625153
1293.727479
1245.683858
1275.130388
1270.294528
1269.246891
1283.87448
1294.698755
1048.922559
1055.654645
922.5096965
882.3696869
814.66344
820.4384557
820.6623489
820.8926285
816.7750658
810.5789964
897.7029077
896.9331621
1127.09206
1247.900703
1284.335965
1299.863837
1291.783319
1283.798799
1231.606538
1252.521144
1245.347744
1243.078653
1254.243441
1271.1817
1028.31744
1040.706464
908.5347274
877.7302476
817.4670747
824.3927365
820.3411307
818.5564322
811.7429362
818.9538347
909.2246904
909.6334109
1139.08505
1256.490931
1291.166723
1317.517302
1313.931411
1297.622198
1250.184506
1284.874394
1278.312956
1277.689472
1294.077428
1300.631384
1049.978765
1047.808519
920.9709416
882.7973683
815.267574
811.5854684
796.9014911
797.229214
796.652925
800.2841602
824.4681207
828.0797886
898.7884597
1006.424349
1004.249544
1105.160492
1105.406679
1101.01969
1076.346935
1073.437784
1073.413874
990.9268128
996.8898912
968.8090977
950.7088764
946.7919943
831.6554523
835.4186586
822.6873284
826.928346
817.0070039
809.5191788
809.6241429
807.310208
816.9248244
815.7391033
887.4573172
885.9218974
958.9345787
950.2744344
952.8729082
947.5365119
934.9992961
927.3039995
926.1731344
924.3611145
902.9948929
870.6870843
866.7584687
859.1717274
825.8853168
823.6178261
811.5479509
810.581584
796.2291303
806.788583
806.1357244
804.0387457
894.1162107
896.5110062
1126.591262
1242.829883
1278.564835
1315.707184
1313.017475
1311.414471
1266.920005
1282.601687
1277.343283
1279.593075
1294.492567
1316.47235
1076.005808
1067.490574
931.6280397
890.7153085
821.9956704
821.7126983
807.781848
804.832076
800.3452962
797.1204563
888.8115085
887.2936152
1113.446636
1232.854491
1272.434014
1316.292284
1317.804312
1313.142436
1271.544089
1288.806786
1291.805387
1312.175714
1330.717754
1326.395813
1066.557986
1056.043861
919.4823387
889.5692313
833.5330928
830.9496552
816.678793
823.6845793
821.2944629
816.3015431
897.416318
901.229525
1128.658518
1251.478321
1274.154545
1306.885258
1295.852488
1301.024638
1269.052534
1285.406386
1277.9019
1287.283333
1294.959929
1278.951002
1044.860993
1056.653428
923.2863722
897.1550326
845.6923803
844.5956696
808.8805741
818.0307123
824.5400534
815.4649157
898.5958635
889.7444328
1118.829647
1240.750685
1282.824919
1319.92753
1314.369787
1305.232575
1255.778054
1278.533449
1270.797834
1266.812932
1269.560355
1276.679294
1031.392215
1049.893979
931.3952708
889.4808661
805.4178244
791.0869819
776.7792359
769.0636259
770.4339437
786.9874829
889.7112201
907.1393195
1145.462074
1262.304416
1293.073091
1325.236971
1326.956371
1325.755607
1279.924748
1314.601696
1317.485303
1317.747336
1333.974254
1336.092584
1068.274717
1059.520603
924.5724608
885.8351136
820.4159228
821.3903338
808.9200422
808.5990511
808.3072039
807.237992
817.0539968
814.9361593
884.6230852
998.5068804
1003.299882
1113.193433
1122.696748
1125.826898
1095.368163
1089.771344
1089.186785
1010.086089
1017.710193
977.9934016
952.3055457
945.2350381
834.3175823
833.6993151
823.2931833
824.5644055
812.2081578
801.0210961
796.1154241
789.7445825
798.4836876
796.6982861
866.1679398
867.8121743
944.3919761
942.2188209
954.4916307
952.7240165
943.5452827
933.6971792
921.9687082
910.3964273
895.0351581
855.7694516
857.1177125
853.660923
822.7466039
829.7264012
818.4002148
815.5020546
799.3400468
804.3559641
800.3910957
794.9491317
794.4375678
885.2968676
885.2833239
1108.966893
1228.580436
1274.227474
1300.277139
1305.362433
1312.161609
1262.995495
1289.872406
1294.884193
1312.007926
1334.284353
1349.881107
1076.763763
1067.357915
932.0340532
889.9998381
819.5472115
820.8834348
811.3737378
813.9335678
814.639397
814.2786779
906.9738266
908.639479
1129.273478
1244.729488
1287.173093
1322.754694
1331.32521
1325.928974
1268.489027
1288.85844
1285.886779
1295.007748
1309.106376
1332.937982
1063.478015
1064.145808
934.221299
899.4107236
831.6559007
830.2459015
820.6382737
819.5611935
818.1749811
817.3273338
909.8026417
913.9996634
1139.364586
1245.697763
1275.249001
1310.051373
1318.011455
1314.113522
1271.712013
1297.736027
1302.004221
1310.852159
1313.682148
1332.456072
1068.377044
1073.124871
939.8064373
898.8264743
831.349793
831.4090127
816.8931265
819.3135995
816.1260755
813.7942504
904.5547416
905.5638305
1131.119902
1238.751587
1279.280547
1309.542061
1309.31068
1312.51374
1265.675554
1294.127154
1294.617178
1292.317842
1299.806672
1330.643957
1065.584771
1061.410206
927.0445851
878.4747265
817.3432568
822.1603684
808.9187924
815.2626371
818.0069383
817.5914708
902.7587851
905.0183698
1131.996065
1233.07561
1269.600569
1297.150865
1289.919196
1277.952061
1226.03102
1258.642409
1260.068885
1259.467928
1281.532546
1299.205722
1037.71724
1033.50077
901.7289832
868.3679175
799.0210152
788.5324054
765.2650156
770.9087095
768.1454014
765.6382983
779.2950805
781.073924
849.9973113
845.5579085
916.0849584
901.2774251
907.8480946
898.7528481
892.8364064
889.7215619
887.9339205
901.3764151
892.4068105
858.4420365
830.5133276
828.6787115
798.7491136
830.9942338
818.4444106
816.9226348
802.3869803
803.125733
803.4215607
792.5626878
787.8249352
792.5556248
863.8347345
859.5306721
931.0698658
911.3390021
915.1034907
919.1815485
920.3107738
911.6945984
918.1234923
924.8781896
905.3971234
870.3153426
839.9086405
836.3252618
803.2168451
803.9202056
802.9392854
795.48608
790.502448
799.4029313
803.2779122
806.3893497
909.7460515
914.2976499
1135.912606
1241.208496
1262.788164
1284.125451
1283.309602
1275.580134
1237.79268
1269.140455
1258.785102
1264.84533
1280.56803
1303.126721
1047.621646
1044.685655
912.8467498
886.3257425
828.4944904
835.206596
818.9836588
815.9974312
813.7031205
813.1266964
903.9449739
902.8157188
1129.10574
1242.002759
1261.787327
1286.109507
1294.470171
1292.56669
1228.107285
1259.341979
1267.343333
1271.340062
1281.420684
1291.735462
1036.041196
1027.83777
894.7585758
870.3024275
796.2040832
799.8074472
804.4224979
821.1254395
823.2788752
821.53662
910.7093797
911.256396
1137.340323
1241.482549
1263.248056
1282.653971
1288.520349
1284.663085
1237.370403
1265.044901
1262.880656
1257.518986
1274.969182
1290.065285
1035.142686
1041.763385
919.1068995
886.7248967
824.8033098
827.455536
804.7171556
819.8193755
816.5370148
810.2209028
896.4861396
897.2138669
1127.936386
1245.212288
1278.291981
1300.116672
1306.921368
1306.772518
1251.980074
1271.859868
1264.818323
1263.17185
1280.509221
1303.56109
1042.447053
1049.615347
931.908906
902.7235213
830.3920466
821.634251
821.1629394
816.5610792
812.1154294
807.7528484
895.722568
892.5840736
1118.547794
1235.917769
1283.71738
1321.946585
1297.439667
1276.172132
1232.716245
1265.217633
1255.228136
1263.719296
1288.996891
1304.888152
1039.36981
1047.5559
929.2252329
902.0161421
830.265422
826.3258766
812.9480438
812.1299165
808.3694384
805.7782522
817.6766819
824.1130395
900.626467
1010.597189
1020.974797
1128.67221
1131.751148
1114.065921
1059.237309
1043.159402
1043.336903
970.5710347
990.8231142
972.0215917
932.9267296
927.479684
822.0042436
829.6324332
823.0791484
831.591249
811.6192089
809.8439995
808.5962171
808.2934438
816.857321
814.0082464
881.8985248
877.0856115
958.1801327
945.9732736
950.168088
955.8201019
952.5176663
937.6175374
930.8923486
934.6913953
928.0662428
897.3164846
864.470186
856.865293
824.6719418
822.611856
808.5999686
805.3168585
801.2929961
798.9455737
807.569455
815.9072161
909.4623691
914.3073904
1121.919056
1247.538281
1305.872994
1339.484264
1355.739952
1358.589432
1308.661353
1324.770969
1291.433065
1275.508458
1285.385975
1305.190411
1054.516225
1055.943259
931.1396439
903.2934232
841.8211288
845.647101
844.3810589
848.5652702
843.6576391
840.5350211
926.9609195
926.3381252
1159.498388
1276.151525
1313.557684
1353.775878
1349.715607
1331.846505
1284.401503
1311.557319
1300.313726
1302.767814
1315.49546
1328.564788
1072.825903
1077.235745
980.9419799
942.1805806
878.3140405
867.3143339
849.5897844
850.127347
845.812952
809.5500311
912.1825296
923.0429916
1133.19898
1243.601215
1296.267674
1344.411937
1333.064629
1341.484296
1278.10993
1295.907551
1302.121763
1292.315334
1316.216712
1346.772343
1080.245917
1070.707308
933.3893359
889.4844085
819.8075934
818.6265204
788.1820347
784.3853235
782.8017844
779.0682663
790.1034519
788.5558283
862.7587769
860.2519181
946.8508499
945.5424337
955.8605755
958.5163464
958.6584566
947.8366637
930.8815805
931.8108901
928.220324
900.5767309
868.3802051
856.707646
819.9023955
816.591208
803.0215687
801.3098561
797.8312026
795.7266973
794.9047455
791.9297107
881.0285968
878.8517387
1111.200037
1224.340655
1270.101927
1308.741177
1321.471547
1328.138332
1285.02038
1299.108306
1290.506908
1298.730874
1318.912573
1334.286635
1061.477703
1051.493145
927.6434147
894.7373197
833.4433358
830.0465187
813.407376
813.7655267
815.415358
816.0500748
826.229644
826.3651045
899.1094579
1005.202324
1015.31142
1125.719795
1130.43657
1119.98102
1080.643994
1076.173978
1075.445569
1003.7529
1015.308584
985.4246831
944.5145766
932.704096
826.8313721
829.0690006
819.2332652
825.7063239
811.5403025
809.3147762
806.9341156
804.415719
814.6373464
814.1475638
885.695542
877.737563
958.3342067
953.2155228
957.2268182
956.6135151
951.3751986
928.8478709
924.8559922
929.9359771
917.3016955
876.7932253
849.1610465
845.1966951
817.0008911
818.3768619
809.9024977
810.9754157
820.459809
821.6455092
821.8661785
809.7771837
883.4503917
858.3513124
1110.474631
1251.893745
1291.189722
1320.935834
1327.339349
1328.069379
1277.855068
1305.200063
1303.396692
1312.239814
1332.407678
1345.271795
1071.953254
1065.524416
947.8773941
914.0827845
847.9779056
854.4906303
849.4401398
846.7180481
844.5281737
843.8857097
933.9535882
933.5579803
1162.814855
1266.574673
1307.048821
1345.987114
1351.305159
1355.0784
1317.845838
1355.541851
1347.065143
1345.635298
1354.735078
1381.666293
1105.579592
1095.091607
966.1638233
917.6455593
854.056278
853.0942973
842.1157593
843.6939195
848.5918
838.8535783
920.3383067
925.8384612
1159.699844
1274.340289
1315.883875
1348.217508
1360.918156
1367.135592
1329.74873
1365.186465
1362.211738
1353.862219
1358.824471
1366.595391
1103.659939
1088.165155
944.388387
893.9992337
823.611771
822.9551358
810.3091302
806.7091894
800.4021846
803.3761261
884.0200711
881.7234602
1108.26357
1215.829256
1261.882046
1306.355867
1313.787765
1319.644149
1282.98531
1314.936178
1325.376786
1325.330106
1331.973362
1343.668045
1066.666291
1062.50515
917.9628894
872.8026275
807.5970703
809.4506786
792.3736249
794.4023895
793.0916432
791.5619561
882.8472777
886.7170904
1121.016441
1232.865134
1280.516541
1319.989116
1331.97326
1328.260492
1280.650172
1312.071504
1303.012879
1296.109802
1318.917954
1345.958561
1075.734734
1065.720604
927.7205135
882.7617501
813.2874669
812.346388
796.9061441
793.5245272
790.3624917
788.5927765
796.3830249
795.7926903
870.72211
983.3116962
999.2356184
1108.959921
1117.787242
1123.410918
1096.66974
1090.670331
1091.53007
1015.04368
1027.332018
997.7100557
958.2581036
950.3507597
838.4756445
838.0486856
827.9972356
828.458794
804.0340449
803.7909793
803.7199958
803.6956007
813.8773696
813.8422914
886.9243249
878.8052875
958.8947066
953.3987482
957.192814
943.5708145
939.0708326
921.9700297
922.8526835
923.5134115
900.8916158
862.4194905
836.6209575
836.2277993
806.2196576
810.4087665
802.5412235
798.2580925
794.4586814
794.7401914
794.8340787
805.1059154
910.4726183
914.4075407
1136.566757
1249.904931
1290.663505
1318.972246
1322.949805
1315.546485
1263.630745
1291.939785
1291.218868
1291.809547
1296.977636
1311.415392
1048.384447
1044.580876
917.4523301
876.9701538
804.471431
818.1667622
805.6259927
800.3318095
798.5483317
795.134172
891.3673914
894.0847969
1121.588092
1223.376671
1264.416932
1297.855067
1296.794339
1291.059774
1251.777217
1280.050263
1281.442673
1280.62921
1291.393089
1316.012243
1056.249846
1046.501779
924.9393239
892.8808091
826.8087306
821.9421134
813.5022515
815.3885982
815.1241607
821.1011573
912.1706252
913.2403052
1142.347943
1250.771965
1286.244326
1312.056479
1317.60109
1313.373223
1261.20751
1290.845591
1281.850375
1286.642321
1302.663056
1313.788167
1051.654903
1052.742455
916.9189218
881.5812042
816.0690739
817.6374542
806.1593603
787.5138608
760.201572
753.0889047
848.5010384
859.620818
1088.026799
1200.577213
1235.520017
1268.295462
1301.539115
1331.37426
1269.434094
1305.859009
1322.324876
1329.060972
1333.009236
1341.583069
1063.607059
1056.982151
922.1747272
881.6669621
811.4453454
809.3965007
799.9504606
799.4833358
800.1479816
799.4450686
893.6144567
892.6084187
1121.383073
1231.566508
1268.847172
1306.324672
1319.256996
1322.063351
1278.466934
1312.495419
1313.80074
1313.82884
1324.771295
1330.773762
1055.778844
1049.760245
915.8432432
874.7281367
809.5129967
807.9440618
795.05493
796.6648653
795.577339
793.9610471
803.8278344
803.4108651
868.2641935
975.752982
983.2689428
1095.825986
1111.429253
1128.982614
1095.908741
1086.057185
1084.39725
1005.322241
1026.443241
985.1170872
942.5815416
930.3101471
815.5445383
813.2230687
806.8653672
814.0780238
792.7356909
795.5029559
795.1563106
786.2664752
786.4937974
785.8386103
866.8281745
866.4770342
940.5480425
936.4795837
944.9759855
956.5301227
958.7609595
943.5449544
944.851007
951.0286237
922.3909011
889.9157505
858.986746
848.9808519
822.7382737
828.3124629
817.7122263
821.8222782
804.6906873
805.981122
810.2297413
811.223842
906.2557547
900.103016
1128.509305
1240.185183
1279.810243
1319.747729
1336.161596
1339.735655
1283.339659
1308.799522
1308.489969
1318.531834
1336.065219
1347.134957
1064.486227
1061.174514
927.3040672
876.9003521
814.090878
817.3818293
800.1801286
791.4793651
786.7874073
790.7865505
883.8277108
879.5515468
1102.066076
1214.971839
1257.597327
1293.807143
1304.42904
1308.997694
1270.402539
1306.408215
1310.931878
1312.137081
1323.057771
1333.935553
1058.595289
1050.551469
913.7351731
870.8538136
808.7906653
808.7654911
795.9569328
795.8438947
801.5064929
799.5090632
889.2125115
885.6455144
1107.349054
1223.840232
1267.713726
1306.169612
1318.918091
1311.556443
1270.183703
1309.076127
1309.907243
1306.653698
1317.127215
1331.536021
1054.976931
1045.070243
913.8824569
875.6674662
815.0762515
824.1313664
819.2931458
821.0078573
818.6425074
816.4081514
904.5367101
907.5976308
1139.888788
1254.421314
1292.884636
1325.293824
1324.904612
1324.705206
1265.718517
1277.549456
1285.923185
1315.148802
1338.319605
1353.033104
1076.837914
1065.338627
928.0424867
884.6504926
814.1787347
812.9770404
796.5184324
793.2169401
789.5936555
787.6967301
876.2809803
877.9815393
1107.237518
1221.337685
1263.074805
1302.936769
1319.537326
1325.884336
1285.897229
1321.087512
1320.997616
1319.732822
1327.397684
1339.13223
1063.217288
1050.94815
913.5346903
873.8347447
808.6387063
811.7813005
799.4212927
797.0534735
796.361937
794.5787073
803.5624267
804.1511511
876.1588862
985.4133871
992.0902513
1103.103778
1115.53992
1118.587095
1087.225711
1083.514731
1086.222831
1009.850864
1021.520733
990.5944425
951.5266823
944.0389539
832.0444909
829.230449
818.4459787
819.8123302
796.5519438
797.1013957
798.6619662
799.1203397
810.0520956
809.8792881
881.2630226
876.5000519
951.9481094
945.7768035
955.6003743
957.339458
957.4767381
952.7998731
954.072565
953.7864056
928.8112032
888.8231015
856.4049873
848.5400504
816.484007
815.7612895
804.1935979
803.8478334
802.1163422
802.4718173
802.3386844
802.1997937
892.8167888
895.1953082
1124.52786
1236.803156
1275.829604
1312.890499
1321.909247
1323.619105
1281.410388
1315.882457
1304.846292
1302.825791
1321.778601
1340.425477
1080.401976
1085.479994
953.8274009
908.1221467
844.2826065
846.208327
854.7951409
849.5094695
838.0337148
831.1158167
928.639018
923.2059107
1146.580367
1253.024254
1291.119359
1345.790565
1377.845364
1387.76735
1333.7602
1345.850955
1314.849055
1325.810235
1367.783501
1388.981796
1080.986584
1062.674619
938.1781218
901.5565479
833.8172801
839.3712535
812.3355703
800.6744386
800.201569
813.5792184
896.8626088
890.6377565
1110.028151
1222.930965
1265.291041
1301.738299
1310.52271
1313.919102
1266.225527
1315.892084
1320.90434
1324.43366
1338.554162
1346.909346
1066.040163
1052.887917
915.5480768
875.078349
810.8826114
815.6658117
803.4874208
806.4846203
799.5411968
795.1677511
883.4843327
886.1115876
1114.717397
1226.930103
1265.457293
1301.285838
1314.598397
1337.356615
1314.986425
1349.297213
1350.283186
1348.328139
1357.314485
1365.431459
1091.403984
1098.251912
960.0646707
919.8576496
853.3456763
848.4174561
836.0471337
843.9272569
842.8462847
838.903246
932.8303604
935.6574804
1159.688694
1271.423174
1313.647975
1352.677191
1365.757501
1366.563579
1325.713803
1348.695763
1349.261465
1351.40059
1341.434526
1368.54083
1108.064464
1104.094742
953.6976783
914.2817516
843.335054
850.6161443
823.6181162
812.1386117
806.4213867
801.9367669
812.360991
824.9238772
892.2709386
990.9620633
991.4585963
1101.781767
1107.813094
1110.895284
1084.236538
1089.180558
1102.54227
1002.70159
1019.333697
995.2356094
953.9275341
939.2664896
824.2614927
824.2805567
816.3366296
813.7165419
797.0618677
811.1880323
809.321111
811.3216821
817.8712937
815.4574191
872.0716412
869.2606084
936.6694907
929.8475419
948.295706
955.3750261
959.9308405
968.1950583
981.5956522
972.6854328
943.5170517
899.3791676
874.2139764
873.2146235
842.7377392
830.7445036
827.6704887
832.4777842
823.5314982
825.6033442
826.6962875
827.2476896
829.2595968
834.8324059
903.6991616
892.9829065
970.5781128
963.7832362
969.8948661
973.7883614
972.0214809
962.1694137
958.2938989
960.5864382
937.6210251
884.5918637
866.211026
871.3029182
837.2115578
843.9199303
839.8228193
840.6747187
825.5932241
823.5861141
821.1794475
812.5042126
892.6740345
891.6522769
1115.893434
1224.295389
1257.899722
1298.374335
1315.738279
1328.898016
1292.989608
1337.287808
1347.204107
1339.61618
1334.584684
1350.371653
1062.004175
1059.104679
940.2866159
899.4219227
827.4035066
823.5059446
809.5770093
809.0439119
803.2611914
796.1219715
887.2762676
886.0050482
1106.092137
1224.667269
1259.462465
1293.066553
1305.171241
1309.237635
1272.955561
1305.233334
1305.606668
1314.250299
1340.367494
1339.272663
1063.372674
1060.590506
925.8986335
885.2303688
809.4989928
810.9498516
800.0816977
795.1157432
797.1027051
790.3715791
883.3201544
884.8372083
1109.192993
1227.128609
1261.638311
1307.102031
1330.97708
1329.486824
1284.881649
1321.532152
1318.400664
1314.17055
1328.254411
1343.885912
1078.89665
1071.979357
928.8984588
881.7677738
820.4100941
816.1499971
799.9407536
799.7647687
797.0083093
792.0411482
884.2567664
886.6702856
1115.129262
1225.655371
1265.72743
1302.242149
1315.720141
1321.273861
1294.133075
1334.637419
1319.552583
1306.320916
1323.346653
1343.531156
1064.777676
1055.95096
920.9145812
879.9289174
811.0499396
811.6483553
797.3448067
800.1970234
792.465614
791.3403216
805.9931251
800.443718
870.051648
980.1873918
994.328352
1108.434719
1124.041185
1129.444609
1090.775945
1086.221589
1087.829986
1009.817805
1019.18002
987.7957646
946.7885187
942.4191353
830.1274514
826.3457555
816.1606232
817.016735
791.9738489
789.026179
786.7916654
787.5827873
797.3047787
794.181446
867.1487372
863.9774062
943.68905
939.4662388
950.4260857
953.9334838
955.9637376
950.1688428
950.6045756
950.6076805
926.8563139
883.7266039
850.2164286
845.5630806
827.5305211
829.2562997
813.9372051
815.5885836